* ============= O3 Absorption Cross Sections at 293K =================================
* 
* Version 2.0
* Date: August 2000
* 
* K. Bogumil, J. Orphal, and J. P. Burrows
* University of Bremen - Institute of Environmental Physics
* P. O. Box 33 04 40
* D-28334 Bremen, Germany
* e-mail: Konstanze.Bogumil@iup.physik.uni-bremen.de
* 
* 1. column title:	wavelength (air) in nm
* 2. column title:	absorption cross-section 
* 
* Wavelength range:	230 - 1070 nm
* Spectral Resolution:	0.32 nm below 311.7 nm, 0.21 nm between 311.7 nm and 402 nm, 0.52 nm
*                         between 402 nm and 597.8 nm, 0.47 nm between 597.8 nm and 781.6 nm,
*                         0.62 nm between 781.6 nm and 1052.5 nm, 1.45 nm above 1052.5 nm (FWHM)
* Number of data points in file:	4227
* 
* Experimental:
* 
* Light source:   Xenon lamp, QTH lamp for 489.5 - 718.9 nm wavelength region
* Cell:	        Multiple reflection quartz cell (White optics)
* 	        optical pathlength 505 cm and 985 cm
* Temperature:    293K
* Gas mixture:    O3, O2, N2
* Condition:      Flow measurement
* Total pressure: 50 - 900 mbar
* Spectrometer:   SCIAMACHY PFM Satellite Spectrometer (Eight channel grating spectrometer)
* 
* Note: Spectral Regions are cutted and concatenated at 287.7 nm, 302.2 nm, 311.7 nm, 316.3 nm, 
*       334.2 nm, 345.2 nm, 402 nm, 489.5 nm, 597.8 nm, 718.9 nm, 781.6 nm and 1052.5 nm.
*
* ===============================================================================================
  2.2992531e+002  4.5190200e-018
  2.3006028e+002  4.4647300e-018
  2.3019525e+002  4.5286500e-018
  2.3033001e+002  4.6203600e-018
  2.3046478e+002  4.6986000e-018
  2.3059945e+002  4.7207900e-018
  2.3073402e+002  4.7012700e-018
  2.3086849e+002  4.7703300e-018
  2.3100295e+002  4.8539700e-018
  2.3113722e+002  4.9286500e-018
  2.3127149e+002  4.9351500e-018
  2.3140566e+002  4.9803800e-018
  2.3153983e+002  5.0662600e-018
  2.3167380e+002  5.0462300e-018
  2.3180776e+002  5.1454200e-018
  2.3194163e+002  5.1498400e-018
  2.3207540e+002  5.1908000e-018
  2.3220917e+002  5.2547800e-018
  2.3234274e+002  5.3366800e-018
  2.3247631e+002  5.3774800e-018
  2.3260977e+002  5.4190400e-018
  2.3274314e+002  5.4908100e-018
  2.3287651e+002  5.5485800e-018
  2.3300968e+002  5.5672800e-018
  2.3314285e+002  5.6230600e-018
  2.3327592e+002  5.7010700e-018
  2.3340888e+002  5.7026000e-018
  2.3354175e+002  5.7318800e-018
  2.3367462e+002  5.7826500e-018
  2.3380739e+002  5.8473900e-018
  2.3394006e+002  5.8893300e-018
  2.3407263e+002  5.9506700e-018
  2.3420520e+002  5.9877600e-018
  2.3433756e+002  6.0526200e-018
  2.3446993e+002  6.1353100e-018
  2.3460220e+002  6.1925900e-018
  2.3473437e+002  6.2536300e-018
  2.3486654e+002  6.2900900e-018
  2.3499851e+002  6.3188100e-018
  2.3513048e+002  6.3582200e-018
  2.3526234e+002  6.3670800e-018
  2.3539411e+002  6.4153100e-018
  2.3552588e+002  6.4734800e-018
  2.3565755e+002  6.5240700e-018
  2.3578902e+002  6.6020200e-018
  2.3592049e+002  6.6490200e-018
  2.3605196e+002  6.7300300e-018
  2.3618323e+002  6.7901700e-018
  2.3631449e+002  6.8230200e-018
  2.3644566e+002  6.8594000e-018
  2.3657673e+002  6.9092900e-018
  2.3670770e+002  6.9401500e-018
  2.3683867e+002  6.9828300e-018
  2.3696954e+002  7.0597600e-018
  2.3710021e+002  7.1089200e-018
  2.3723098e+002  7.1599900e-018
  2.3736154e+002  7.2078700e-018
  2.3749211e+002  7.2485600e-018
  2.3762248e+002  7.2998000e-018
  2.3775285e+002  7.3488300e-018
  2.3788322e+002  7.4034700e-018
  2.3801339e+002  7.4543000e-018
  2.3814356e+002  7.5172000e-018
  2.3827353e+002  7.5703400e-018
  2.3840360e+002  7.6031600e-018
  2.3853347e+002  7.6552000e-018
  2.3866323e+002  7.6947100e-018
  2.3879300e+002  7.7215300e-018
  2.3892267e+002  7.7673000e-018
  2.3905224e+002  7.7995500e-018
  2.3918171e+002  7.8604300e-018
  2.3931118e+002  7.9354600e-018
  2.3944055e+002  8.0110400e-018
  2.3956982e+002  8.0903300e-018
  2.3969899e+002  8.1561700e-018
  2.3982806e+002  8.2258600e-018
  2.3995712e+002  8.2681300e-018
  2.4008609e+002  8.2929300e-018
  2.4021496e+002  8.3060600e-018
  2.4034373e+002  8.3198600e-018
  2.4047250e+002  8.3511400e-018
  2.4060117e+002  8.3845500e-018
  2.4072974e+002  8.4453200e-018
  2.4085821e+002  8.4892200e-018
  2.4098668e+002  8.5574700e-018
  2.4111495e+002  8.6086600e-018
  2.4124322e+002  8.6618800e-018
  2.4137139e+002  8.7276700e-018
  2.4149956e+002  8.7896300e-018
  2.4162753e+002  8.8431900e-018
  2.4175549e+002  8.8763800e-018
  2.4188336e+002  8.9046500e-018
  2.4201123e+002  8.9292700e-018
  2.4213890e+002  8.9606700e-018
  2.4226657e+002  9.0071900e-018
  2.4239414e+002  9.0387700e-018
  2.4252161e+002  9.0776400e-018
  2.4264908e+002  9.1131300e-018
  2.4277635e+002  9.1592200e-018
  2.4290362e+002  9.2123600e-018
  2.4303089e+002  9.2749200e-018
  2.4315796e+002  9.3342500e-018
  2.4328503e+002  9.3943500e-018
  2.4341200e+002  9.4427300e-018
  2.4353887e+002  9.5026600e-018
  2.4366564e+002  9.5576700e-018
  2.4379241e+002  9.6030800e-018
  2.4391908e+002  9.6461200e-018
  2.4404564e+002  9.6552000e-018
  2.4417221e+002  9.6651300e-018
  2.4429858e+002  9.6722600e-018
  2.4442495e+002  9.6844000e-018
  2.4455122e+002  9.6948400e-018
  2.4467749e+002  9.7061300e-018
  2.4480366e+002  9.7352500e-018
  2.4492973e+002  9.7947500e-018
  2.4505570e+002  9.8805700e-018
  2.4518157e+002  9.9730900e-018
  2.4530744e+002  1.0062800e-017
  2.4543321e+002  1.0127200e-017
  2.4555888e+002  1.0178300e-017
  2.4568455e+002  1.0212500e-017
  2.4581012e+002  1.0236000e-017
  2.4593559e+002  1.0243300e-017
  2.4606096e+002  1.0260500e-017
  2.4618633e+002  1.0260200e-017
  2.4631150e+002  1.0257500e-017
  2.4643667e+002  1.0255600e-017
  2.4656184e+002  1.0263700e-017
  2.4668691e+002  1.0277000e-017
  2.4681188e+002  1.0310300e-017
  2.4693675e+002  1.0358400e-017
  2.4706152e+002  1.0418000e-017
  2.4718629e+002  1.0480700e-017
  2.4731096e+002  1.0533100e-017
  2.4743553e+002  1.0573400e-017
  2.4756010e+002  1.0609000e-017
  2.4768457e+002  1.0639700e-017
  2.4780894e+002  1.0658500e-017
  2.4793331e+002  1.0646400e-017
  2.4805748e+002  1.0632600e-017
  2.4818165e+002  1.0623400e-017
  2.4830582e+002  1.0640300e-017
  2.4842979e+002  1.0693300e-017
  2.4855376e+002  1.0765100e-017
  2.4867763e+002  1.0842000e-017
  2.4880150e+002  1.0924700e-017
  2.4892527e+002  1.0985600e-017
  2.4904894e+002  1.1012000e-017
  2.4917251e+002  1.1010600e-017
  2.4929608e+002  1.1004200e-017
  2.4941955e+002  1.1002700e-017
  2.4954292e+002  1.1026300e-017
  2.4966629e+002  1.1062800e-017
  2.4978956e+002  1.1096900e-017
  2.4991273e+002  1.1117100e-017
  2.5003590e+002  1.1124800e-017
  2.5015897e+002  1.1108800e-017
  2.5028194e+002  1.1076700e-017
  2.5040481e+002  1.1044100e-017
  2.5052768e+002  1.1025400e-017
  2.5065045e+002  1.1021800e-017
  2.5077322e+002  1.1023700e-017
  2.5089579e+002  1.1038300e-017
  2.5101836e+002  1.1061700e-017
  2.5114093e+002  1.1094300e-017
  2.5126330e+002  1.1154200e-017
  2.5138577e+002  1.1241600e-017
  2.5150804e+002  1.1345900e-017
  2.5163031e+002  1.1426900e-017
  2.5175249e+002  1.1470000e-017
  2.5187456e+002  1.1468800e-017
  2.5199663e+002  1.1449800e-017
  2.5211860e+002  1.1409500e-017
  2.5224047e+002  1.1370300e-017
  2.5236234e+002  1.1326700e-017
  2.5248411e+002  1.1288600e-017
  2.5260578e+002  1.1265000e-017
  2.5272745e+002  1.1266100e-017
  2.5284902e+002  1.1278500e-017
  2.5297059e+002  1.1299200e-017
  2.5309196e+002  1.1320300e-017
  2.5321343e+002  1.1351200e-017
  2.5333470e+002  1.1382800e-017
  2.5345597e+002  1.1419200e-017
  2.5357714e+002  1.1453800e-017
  2.5369831e+002  1.1471800e-017
  2.5381938e+002  1.1484500e-017
  2.5394035e+002  1.1487900e-017
  2.5406123e+002  1.1469600e-017
  2.5418210e+002  1.1435700e-017
  2.5430297e+002  1.1383100e-017
  2.5442374e+002  1.1334500e-017
  2.5454441e+002  1.1305900e-017
  2.5466498e+002  1.1308500e-017
  2.5478555e+002  1.1349000e-017
  2.5490602e+002  1.1416800e-017
  2.5502649e+002  1.1505900e-017
  2.5514686e+002  1.1586300e-017
  2.5526713e+002  1.1639600e-017
  2.5538740e+002  1.1648400e-017
  2.5550757e+002  1.1624000e-017
  2.5562774e+002  1.1582400e-017
  2.5574772e+002  1.1536700e-017
  2.5586779e+002  1.1491200e-017
  2.5598766e+002  1.1445600e-017
  2.5610753e+002  1.1391900e-017
  2.5622740e+002  1.1336300e-017
  2.5634717e+002  1.1276400e-017
  2.5646684e+002  1.1226000e-017
  2.5658651e+002  1.1192000e-017
  2.5670608e+002  1.1189900e-017
  2.5682555e+002  1.1211200e-017
  2.5694502e+002  1.1246500e-017
  2.5706439e+002  1.1271800e-017
  2.5718377e+002  1.1274000e-017
  2.5730304e+002  1.1250400e-017
  2.5742231e+002  1.1210800e-017
  2.5754138e+002  1.1174100e-017
  2.5766055e+002  1.1154900e-017
  2.5777962e+002  1.1138900e-017
  2.5789859e+002  1.1125400e-017
  2.5801746e+002  1.1134600e-017
  2.5813633e+002  1.1165400e-017
  2.5825520e+002  1.1235700e-017
  2.5837398e+002  1.1320400e-017
  2.5849265e+002  1.1401300e-017
  2.5861132e+002  1.1455900e-017
  2.5872989e+002  1.1466900e-017
  2.5884836e+002  1.1437300e-017
  2.5896683e+002  1.1367200e-017
  2.5908530e+002  1.1266400e-017
  2.5920367e+002  1.1142200e-017
  2.5932194e+002  1.1006400e-017
  2.5944022e+002  1.0882600e-017
  2.5955839e+002  1.0779500e-017
  2.5967656e+002  1.0709800e-017
  2.5979463e+002  1.0676700e-017
  2.5991260e+002  1.0678900e-017
  2.6003067e+002  1.0721000e-017
  2.6014854e+002  1.0789100e-017
  2.6026641e+002  1.0875300e-017
  2.6038418e+002  1.0949500e-017
  2.6050196e+002  1.1008200e-017
  2.6061973e+002  1.1028800e-017
  2.6073730e+002  1.1004100e-017
  2.6085497e+002  1.0945100e-017
  2.6097244e+002  1.0854900e-017
  2.6109001e+002  1.0745200e-017
  2.6120738e+002  1.0646900e-017
  2.6132476e+002  1.0559100e-017
  2.6144213e+002  1.0492900e-017
  2.6155940e+002  1.0451700e-017
  2.6167667e+002  1.0436900e-017
  2.6179384e+002  1.0433800e-017
  2.6191091e+002  1.0443400e-017
  2.6202798e+002  1.0463900e-017
  2.6214505e+002  1.0493900e-017
  2.6226203e+002  1.0525700e-017
  2.6237900e+002  1.0546700e-017
  2.6249587e+002  1.0532500e-017
  2.6261264e+002  1.0472800e-017
  2.6272941e+002  1.0379900e-017
  2.6284618e+002  1.0266100e-017
  2.6296285e+002  1.0152200e-017
  2.6307943e+002  1.0050500e-017
  2.6319600e+002  9.9742000e-018
  2.6331257e+002  9.9102800e-018
  2.6342904e+002  9.8695300e-018
  2.6354541e+002  9.8480600e-018
  2.6366178e+002  9.8524700e-018
  2.6377815e+002  9.8736900e-018
  2.6389443e+002  9.9039100e-018
  2.6401070e+002  9.9353200e-018
  2.6412687e+002  9.9556900e-018
  2.6424304e+002  9.9739400e-018
  2.6435911e+002  9.9759800e-018
  2.6447518e+002  9.9637500e-018
  2.6459116e+002  9.9127400e-018
  2.6470713e+002  9.8218300e-018
  2.6482300e+002  9.7080800e-018
  2.6493887e+002  9.6021500e-018
  2.6505464e+002  9.5258400e-018
  2.6517041e+002  9.5013000e-018
  2.6528618e+002  9.5102200e-018
  2.6540186e+002  9.5288100e-018
  2.6551743e+002  9.5280400e-018
  2.6563310e+002  9.5171800e-018
  2.6574857e+002  9.4903500e-018
  2.6586414e+002  9.4449400e-018
  2.6597951e+002  9.3789800e-018
  2.6609499e+002  9.3021600e-018
  2.6621036e+002  9.2387600e-018
  2.6632563e+002  9.1941100e-018
  2.6644090e+002  9.1468300e-018
  2.6655617e+002  9.0856200e-018
  2.6667134e+002  9.0037900e-018
  2.6678652e+002  8.9037200e-018
  2.6690159e+002  8.8050000e-018
  2.6701666e+002  8.7287700e-018
  2.6713173e+002  8.7039800e-018
  2.6724670e+002  8.7251200e-018
  2.6736158e+002  8.7724800e-018
  2.6747645e+002  8.8162000e-018
  2.6759132e+002  8.8240900e-018
  2.6770619e+002  8.7987100e-018
  2.6782096e+002  8.7448100e-018
  2.6793563e+002  8.6803000e-018
  2.6805031e+002  8.6025500e-018
  2.6816498e+002  8.5133300e-018
  2.6827965e+002  8.4248800e-018
  2.6839422e+002  8.3360800e-018
  2.6850869e+002  8.2583400e-018
  2.6862316e+002  8.1948300e-018
  2.6873764e+002  8.1427500e-018
  2.6885201e+002  8.0835100e-018
  2.6896638e+002  8.0157100e-018
  2.6908075e+002  7.9696000e-018
  2.6919502e+002  7.9439100e-018
  2.6930930e+002  7.9588100e-018
  2.6942357e+002  8.0005900e-018
  2.6953774e+002  8.0444500e-018
  2.6965181e+002  8.0618800e-018
  2.6976598e+002  8.0345100e-018
  2.6988006e+002  7.9770100e-018
  2.6999403e+002  7.8997100e-018
  2.7010800e+002  7.8133700e-018
  2.7022197e+002  7.7314400e-018
  2.7033594e+002  7.6561700e-018
  2.7044982e+002  7.5814800e-018
  2.7056359e+002  7.5097700e-018
  2.7067746e+002  7.4425000e-018
  2.7079123e+002  7.3891300e-018
  2.7090490e+002  7.3501800e-018
  2.7101867e+002  7.3136400e-018
  2.7113235e+002  7.2721200e-018
  2.7124592e+002  7.2313700e-018
  2.7135959e+002  7.1930000e-018
  2.7147316e+002  7.1686700e-018
  2.7158663e+002  7.1550100e-018
  2.7170011e+002  7.1437200e-018
  2.7181358e+002  7.1226500e-018
  2.7192705e+002  7.0882700e-018
  2.7204042e+002  7.0329300e-018
  2.7215379e+002  6.9576900e-018
  2.7226707e+002  6.8912300e-018
  2.7238044e+002  6.8419500e-018
  2.7249371e+002  6.7965700e-018
  2.7260688e+002  6.7504300e-018
  2.7272006e+002  6.6936000e-018
  2.7283323e+002  6.6431100e-018
  2.7294640e+002  6.6060700e-018
  2.7305947e+002  6.5791300e-018
  2.7317254e+002  6.5454400e-018
  2.7328562e+002  6.4932500e-018
  2.7339859e+002  6.4313000e-018
  2.7351156e+002  6.3622700e-018
  2.7362453e+002  6.2942700e-018
  2.7373740e+002  6.2229800e-018
  2.7385038e+002  6.1609300e-018
  2.7396315e+002  6.0900200e-018
  2.7407602e+002  6.0169500e-018
  2.7418879e+002  5.9489500e-018
  2.7430156e+002  5.9014600e-018
  2.7441434e+002  5.8839200e-018
  2.7452701e+002  5.8826800e-018
  2.7463968e+002  5.8876700e-018
  2.7475235e+002  5.8839000e-018
  2.7486493e+002  5.8587900e-018
  2.7497760e+002  5.8189400e-018
  2.7509007e+002  5.7700400e-018
  2.7520264e+002  5.7085300e-018
  2.7531511e+002  5.6537800e-018
  2.7542769e+002  5.5914900e-018
  2.7554006e+002  5.5336000e-018
  2.7565253e+002  5.4760600e-018
  2.7576490e+002  5.4191400e-018
  2.7587727e+002  5.3804600e-018
  2.7598965e+002  5.3573100e-018
  2.7610192e+002  5.3423100e-018
  2.7621429e+002  5.3162100e-018
  2.7632656e+002  5.2663900e-018
  2.7643874e+002  5.2079200e-018
  2.7655101e+002  5.1531500e-018
  2.7666318e+002  5.1132500e-018
  2.7677535e+002  5.0805800e-018
  2.7688742e+002  5.0386700e-018
  2.7699960e+002  5.0085000e-018
  2.7711167e+002  4.9889200e-018
  2.7722374e+002  4.9634700e-018
  2.7733581e+002  4.9349300e-018
  2.7744779e+002  4.8915800e-018
  2.7755976e+002  4.8386800e-018
  2.7767173e+002  4.7792300e-018
  2.7778370e+002  4.7186100e-018
  2.7789567e+002  4.6661300e-018
  2.7800755e+002  4.6179800e-018
  2.7811942e+002  4.5793000e-018
  2.7823129e+002  4.5446400e-018
  2.7834306e+002  4.5095200e-018
  2.7845494e+002  4.4734000e-018
  2.7856671e+002  4.4328800e-018
  2.7867848e+002  4.3964600e-018
  2.7879015e+002  4.3528000e-018
  2.7890193e+002  4.3023700e-018
  2.7901360e+002  4.2469300e-018
  2.7912527e+002  4.2010500e-018
  2.7923694e+002  4.1631900e-018
  2.7934861e+002  4.1341900e-018
  2.7946019e+002  4.1166100e-018
  2.7957176e+002  4.0955400e-018
  2.7968333e+002  4.0729900e-018
  2.7979490e+002  4.0497800e-018
  2.7990648e+002  4.0087400e-018
  2.8001795e+002  3.9489800e-018
  2.8012942e+002  3.8825400e-018
  2.8024089e+002  3.8213400e-018
  2.8035237e+002  3.7662200e-018
  2.8046384e+002  3.7235100e-018
  2.8057521e+002  3.6875700e-018
  2.8068658e+002  3.6602100e-018
  2.8079805e+002  3.6422700e-018
  2.8090933e+002  3.6219200e-018
  2.8102070e+002  3.5947600e-018
  2.8113207e+002  3.5548300e-018
  2.8124334e+002  3.4955700e-018
  2.8135462e+002  3.4361700e-018
  2.8146589e+002  3.3780800e-018
  2.8157716e+002  3.3234500e-018
  2.8168833e+002  3.2763300e-018
  2.8179961e+002  3.2383100e-018
  2.8191078e+002  3.2105700e-018
  2.8202195e+002  3.1982200e-018
  2.8213312e+002  3.1819200e-018
  2.8224430e+002  3.1689000e-018
  2.8235547e+002  3.1411100e-018
  2.8246654e+002  3.0988800e-018
  2.8257761e+002  3.0646700e-018
  2.8268869e+002  3.0287600e-018
  2.8279976e+002  3.0009900e-018
  2.8291083e+002  2.9789300e-018
  2.8302190e+002  2.9754900e-018
  2.8313287e+002  2.9714500e-018
  2.8324395e+002  2.9741000e-018
  2.8335492e+002  2.9648000e-018
  2.8346589e+002  2.9351700e-018
  2.8357686e+002  2.8849300e-018
  2.8368784e+002  2.8355400e-018
  2.8379871e+002  2.7807000e-018
  2.8390968e+002  2.7260600e-018
  2.8402055e+002  2.6800800e-018
  2.8413143e+002  2.6463800e-018
  2.8424240e+002  2.6200000e-018
  2.8435317e+002  2.5963800e-018
  2.8446404e+002  2.5721900e-018
  2.8457492e+002  2.5446600e-018
  2.8468569e+002  2.5230900e-018
  2.8479656e+002  2.4988200e-018
  2.8490733e+002  2.4724800e-018
  2.8501811e+002  2.4282300e-018
  2.8512888e+002  2.3883600e-018
  2.8523965e+002  2.3549800e-018
  2.8535042e+002  2.3237100e-018
  2.8546119e+002  2.2980900e-018
  2.8557187e+002  2.2732800e-018
  2.8568264e+002  2.2656200e-018
  2.8579331e+002  2.2493700e-018
  2.8590398e+002  2.2350900e-018
  2.8601466e+002  2.2132500e-018
  2.8612533e+002  2.1891700e-018
  2.8623600e+002  2.1610800e-018
  2.8634667e+002  2.1293100e-018
  2.8645725e+002  2.1071500e-018
  2.8656792e+002  2.0791700e-018
  2.8667849e+002  2.0523700e-018
  2.8678916e+002  2.0282800e-018
  2.8689974e+002  2.0145600e-018
  2.8701031e+002  1.9988200e-018
  2.8712088e+002  1.9825600e-018
  2.8723145e+002  1.9619000e-018
  2.8734203e+002  1.9349600e-018
  2.8745260e+002  1.9017300e-018
  2.8756307e+002  1.8647600e-018
  2.8767364e+002  1.8284800e-018
  2.8778412e+002  1.7950900e-018
  2.8789469e+002  1.7651600e-018
  2.8800516e+002  1.7399400e-018
  2.8811563e+002  1.7177400e-018
  2.8822611e+002  1.6974900e-018
  2.8833658e+002  1.6795400e-018
  2.8844705e+002  1.6635300e-018
  2.8855752e+002  1.6471800e-018
  2.8866799e+002  1.6290600e-018
  2.8877837e+002  1.6092200e-018
  2.8888884e+002  1.5883600e-018
  2.8899921e+002  1.5680100e-018
  2.8910968e+002  1.5488700e-018
  2.8922006e+002  1.5295400e-018
  2.8933043e+002  1.5091500e-018
  2.8944090e+002  1.4874900e-018
  2.8955127e+002  1.4655000e-018
  2.8966165e+002  1.4457100e-018
  2.8977202e+002  1.4299100e-018
  2.8988239e+002  1.4161200e-018
  2.8999276e+002  1.4018700e-018
  2.9010304e+002  1.3856700e-018
  2.9021341e+002  1.3692300e-018
  2.9032378e+002  1.3546100e-018
  2.9043405e+002  1.3415100e-018
  2.9054443e+002  1.3277400e-018
  2.9065470e+002  1.3130300e-018
  2.9076507e+002  1.2965800e-018
  2.9087534e+002  1.2793900e-018
  2.9098562e+002  1.2612800e-018
  2.9109589e+002  1.2427000e-018
  2.9120626e+002  1.2242400e-018
  2.9131653e+002  1.2046800e-018
  2.9142681e+002  1.1834200e-018
  2.9153708e+002  1.1612000e-018
  2.9164735e+002  1.1399700e-018
  2.9175752e+002  1.1230200e-018
  2.9186780e+002  1.1086400e-018
  2.9197807e+002  1.0948300e-018
  2.9208834e+002  1.0804300e-018
  2.9219851e+002  1.0673100e-018
  2.9230878e+002  1.0569700e-018
  2.9241906e+002  1.0484400e-018
  2.9252923e+002  1.0409700e-018
  2.9263950e+002  1.0317100e-018
  2.9274967e+002  1.0198600e-018
  2.9285985e+002  1.0054400e-018
  2.9297012e+002  9.8932200e-019
  2.9308029e+002  9.7326100e-019
  2.9319046e+002  9.5728600e-019
  2.9330064e+002  9.4144700e-019
  2.9341091e+002  9.2480100e-019
  2.9352108e+002  9.0790000e-019
  2.9363125e+002  8.9252800e-019
  2.9374143e+002  8.7875100e-019
  2.9385160e+002  8.6739300e-019
  2.9396177e+002  8.5878600e-019
  2.9407194e+002  8.5170700e-019
  2.9418212e+002  8.4343800e-019
  2.9429219e+002  8.3319600e-019
  2.9440236e+002  8.2305200e-019
  2.9451253e+002  8.1411500e-019
  2.9462271e+002  8.0391800e-019
  2.9473278e+002  7.9312800e-019
  2.9484295e+002  7.8262300e-019
  2.9495312e+002  7.7104800e-019
  2.9506319e+002  7.5817800e-019
  2.9517337e+002  7.4408700e-019
  2.9528354e+002  7.3022500e-019
  2.9539361e+002  7.1655300e-019
  2.9550378e+002  7.0481900e-019
  2.9561386e+002  6.9575900e-019
  2.9572393e+002  6.8754900e-019
  2.9583410e+002  6.7883700e-019
  2.9594417e+002  6.6872900e-019
  2.9605435e+002  6.5598000e-019
  2.9616442e+002  6.4284100e-019
  2.9627449e+002  6.3209300e-019
  2.9638456e+002  6.2452900e-019
  2.9649474e+002  6.1949700e-019
  2.9660481e+002  6.1581100e-019
  2.9671488e+002  6.1066300e-019
  2.9682495e+002  6.0298500e-019
  2.9693503e+002  5.9264800e-019
  2.9704510e+002  5.8112700e-019
  2.9715527e+002  5.7019600e-019
  2.9726534e+002  5.6117900e-019
  2.9737541e+002  5.5192000e-019
  2.9748549e+002  5.4239600e-019
  2.9759556e+002  5.3334000e-019
  2.9770563e+002  5.2475200e-019
  2.9781570e+002  5.1659200e-019
  2.9792568e+002  5.0856000e-019
  2.9803575e+002  5.0109400e-019
  2.9814582e+002  4.9466600e-019
  2.9825589e+002  4.8894500e-019
  2.9836597e+002  4.8231000e-019
  2.9847604e+002  4.7621300e-019
  2.9858611e+002  4.7144800e-019
  2.9869608e+002  4.6679500e-019
  2.9880616e+002  4.6222700e-019
  2.9891623e+002  4.5622300e-019
  2.9902630e+002  4.4819900e-019
  2.9913627e+002  4.3976800e-019
  2.9924634e+002  4.3094000e-019
  2.9935642e+002  4.2270100e-019
  2.9946639e+002  4.1486200e-019
  2.9957646e+002  4.0744300e-019
  2.9968643e+002  4.0107800e-019
  2.9979651e+002  3.9644300e-019
  2.9990648e+002  3.9251700e-019
  3.0001655e+002  3.8846800e-019
  3.0012652e+002  3.8325800e-019
  3.0023660e+002  3.7822300e-019
  3.0034657e+002  3.7329600e-019
  3.0045664e+002  3.6898600e-019
  3.0056661e+002  3.6432100e-019
  3.0067669e+002  3.5900600e-019
  3.0078666e+002  3.5276700e-019
  3.0089663e+002  3.4580500e-019
  3.0100670e+002  3.3869600e-019
  3.0111667e+002  3.3181500e-019
  3.0122665e+002  3.2549900e-019
  3.0133662e+002  3.2019500e-019
  3.0144669e+002  3.1566800e-019
  3.0155666e+002  3.1181400e-019
  3.0166664e+002  3.0887000e-019
  3.0177661e+002  3.0633500e-019
  3.0188658e+002  3.0377600e-019
  3.0199655e+002  3.0057500e-019
  3.0210653e+002  2.9674600e-019
  3.0221650e+002  2.9287100e-019
  3.0232647e+002  2.8840100e-019
  3.0243644e+002  2.8374800e-019
  3.0254641e+002  2.7832100e-019
  3.0265639e+002  2.7327800e-019
  3.0276636e+002  2.6735900e-019
  3.0287633e+002  2.6233000e-019
  3.0298630e+002  2.5726700e-019
  3.0309628e+002  2.5287300e-019
  3.0320625e+002  2.4872800e-019
  3.0331612e+002  2.4529400e-019
  3.0342609e+002  2.4242300e-019
  3.0353607e+002  2.3971200e-019
  3.0364594e+002  2.3712100e-019
  3.0375591e+002  2.3530200e-019
  3.0386588e+002  2.3413400e-019
  3.0397575e+002  2.3286700e-019
  3.0408573e+002  2.3002800e-019
  3.0419560e+002  2.2647000e-019
  3.0430557e+002  2.2287100e-019
  3.0441544e+002  2.1944700e-019
  3.0452542e+002  2.1571700e-019
  3.0463529e+002  2.1120700e-019
  3.0474516e+002  2.0644800e-019
  3.0485513e+002  2.0192400e-019
  3.0496501e+002  1.9758400e-019
  3.0507488e+002  1.9351700e-019
  3.0518475e+002  1.8969500e-019
  3.0529462e+002  1.8636100e-019
  3.0540449e+002  1.8378600e-019
  3.0551437e+002  1.8198500e-019
  3.0562424e+002  1.8088700e-019
  3.0573411e+002  1.7948300e-019
  3.0584398e+002  1.7753700e-019
  3.0595386e+002  1.7547800e-019
  3.0606373e+002  1.7413000e-019
  3.0617350e+002  1.7340700e-019
  3.0628337e+002  1.7207700e-019
  3.0639324e+002  1.6965600e-019
  3.0650302e+002  1.6653100e-019
  3.0661289e+002  1.6349700e-019
  3.0672266e+002  1.6083400e-019
  3.0683253e+002  1.5790200e-019
  3.0694231e+002  1.5435000e-019
  3.0705208e+002  1.5037600e-019
  3.0716185e+002  1.4663600e-019
  3.0727172e+002  1.4353400e-019
  3.0738150e+002  1.4072700e-019
  3.0749127e+002  1.3833700e-019
  3.0760104e+002  1.3633600e-019
  3.0771081e+002  1.3504900e-019
  3.0782048e+002  1.3448700e-019
  3.0793026e+002  1.3373800e-019
  3.0804003e+002  1.3300800e-019
  3.0814980e+002  1.3195600e-019
  3.0825947e+002  1.3001900e-019
  3.0836925e+002  1.2749500e-019
  3.0847892e+002  1.2592100e-019
  3.0858859e+002  1.2563400e-019
  3.0869836e+002  1.2520200e-019
  3.0880804e+002  1.2414100e-019
  3.0891771e+002  1.2262900e-019
  3.0902738e+002  1.2118000e-019
  3.0913705e+002  1.1886100e-019
  3.0924672e+002  1.1603300e-019
  3.0935630e+002  1.1232900e-019
  3.0946597e+002  1.0829900e-019
  3.0957564e+002  1.0520100e-019
  3.0968521e+002  1.0324300e-019
  3.0979489e+002  1.0203400e-019
  3.0990446e+002  1.0105300e-019
  3.1001403e+002  1.0032300e-019
  3.1012360e+002  1.0020600e-019
  3.1023317e+002  1.0015200e-019
  3.1034275e+002  9.8772600e-020
  3.1045232e+002  9.6514600e-020
  3.1056189e+002  9.4529200e-020
  3.1067136e+002  9.3463900e-020
  3.1078094e+002  9.2476700e-020
  3.1089041e+002  9.1408800e-020
  3.1093550e+002  9.0946100e-020
  3.1105037e+002  9.0243200e-020
  3.1116524e+002  8.9945400e-020
  3.1128011e+002  9.0000900e-020
  3.1139488e+002  8.9163700e-020
  3.1150975e+002  8.7441700e-020
  3.1162452e+002  8.5048000e-020
  3.1173929e+002  8.2608900e-020
  3.1185396e+002  8.0236200e-020
  3.1196874e+002  7.8321100e-020
  3.1208341e+002  7.6675300e-020
  3.1219808e+002  7.5398500e-020
  3.1231275e+002  7.3896300e-020
  3.1242742e+002  7.2389200e-020
  3.1254199e+002  7.0898000e-020
  3.1265656e+002  6.9777200e-020
  3.1277123e+002  6.8754100e-020
  3.1288570e+002  6.8078700e-020
  3.1300027e+002  6.7280300e-020
  3.1311475e+002  6.6718900e-020
  3.1322932e+002  6.6933500e-020
  3.1334379e+002  6.7894900e-020
  3.1345826e+002  6.8526500e-020
  3.1357263e+002  6.8217300e-020
  3.1368710e+002  6.6947700e-020
  3.1380147e+002  6.5327600e-020
  3.1391584e+002  6.3542200e-020
  3.1403011e+002  6.1635800e-020
  3.1414448e+002  5.9530200e-020
  3.1425876e+002  5.7460600e-020
  3.1437303e+002  5.5386800e-020
  3.1448730e+002  5.3637400e-020
  3.1460157e+002  5.2391700e-020
  3.1471574e+002  5.1839300e-020
  3.1483001e+002  5.1473400e-020
  3.1494418e+002  5.0908500e-020
  3.1505835e+002  5.0211100e-020
  3.1517242e+002  5.0020600e-020
  3.1528660e+002  5.0770300e-020
  3.1540067e+002  5.2317900e-020
  3.1551474e+002  5.3168400e-020
  3.1562881e+002  5.2568400e-020
  3.1574278e+002  5.0851800e-020
  3.1585675e+002  4.8766200e-020
  3.1597072e+002  4.6743100e-020
  3.1608469e+002  4.5220600e-020
  3.1619866e+002  4.4104900e-020
  3.1631254e+002  4.3090400e-020
  3.1642651e+002  4.1944600e-020
  3.1654038e+002  4.0670400e-020
  3.1665415e+002  3.9454600e-020
  3.1676802e+002  3.9134900e-020
  3.1688179e+002  3.9539200e-020
  3.1699556e+002  4.0329700e-020
  3.1710933e+002  4.0255200e-020
  3.1722310e+002  3.9660000e-020
  3.1733678e+002  3.9110000e-020
  3.1745055e+002  3.9812400e-020
  3.1756422e+002  4.0668200e-020
  3.1767779e+002  4.0477500e-020
  3.1779146e+002  3.8888400e-020
  3.1790503e+002  3.7438200e-020
  3.1801860e+002  3.6288300e-020
  3.1813217e+002  3.5206100e-020
  3.1824574e+002  3.3542000e-020
  3.1835922e+002  3.1943000e-020
  3.1847279e+002  3.0571900e-020
  3.1858626e+002  2.9709900e-020
  3.1869963e+002  2.8895800e-020
  3.1881310e+002  2.8122300e-020
  3.1892647e+002  2.7240900e-020
  3.1903984e+002  2.6733800e-020
  3.1915321e+002  2.6989400e-020
  3.1926659e+002  2.8445400e-020
  3.1937986e+002  3.0152100e-020
  3.1949313e+002  3.0912900e-020
  3.1960640e+002  3.0380200e-020
  3.1971967e+002  2.9798900e-020
  3.1983284e+002  3.0110200e-020
  3.1994611e+002  3.1043400e-020
  3.2005928e+002  3.0727200e-020
  3.2017246e+002  2.9255400e-020
  3.2028553e+002  2.7341200e-020
  3.2039860e+002  2.5847200e-020
  3.2051177e+002  2.4727100e-020
  3.2062474e+002  2.3647200e-020
  3.2073781e+002  2.2272600e-020
  3.2085088e+002  2.0969700e-020
  3.2096385e+002  1.9869500e-020
  3.2107683e+002  1.9243400e-020
  3.2118970e+002  1.8953600e-020
  3.2130267e+002  1.8924700e-020
  3.2141554e+002  1.8781000e-020
  3.2152841e+002  1.8533600e-020
  3.2164128e+002  1.8445900e-020
  3.2175415e+002  1.9253200e-020
  3.2186692e+002  2.1194000e-020
  3.2197970e+002  2.3220300e-020
  3.2209247e+002  2.3680000e-020
  3.2220524e+002  2.2915300e-020
  3.2231791e+002  2.1869000e-020
  3.2243058e+002  2.1713900e-020
  3.2254325e+002  2.2525400e-020
  3.2265592e+002  2.2977100e-020
  3.2276860e+002  2.2099400e-020
  3.2288117e+002  2.0647200e-020
  3.2299374e+002  1.9041500e-020
  3.2310631e+002  1.7568700e-020
  3.2321878e+002  1.6236200e-020
  3.2333135e+002  1.5120000e-020
  3.2344382e+002  1.4115100e-020
  3.2355629e+002  1.3241300e-020
  3.2366867e+002  1.2498600e-020
  3.2378114e+002  1.2030900e-020
  3.2389351e+002  1.1892200e-020
  3.2400588e+002  1.2227800e-020
  3.2411825e+002  1.2692100e-020
  3.2423052e+002  1.2927600e-020
  3.2434289e+002  1.2863000e-020
  3.2445517e+002  1.2893900e-020
  3.2456734e+002  1.3534600e-020
  3.2467961e+002  1.5319500e-020
  3.2479178e+002  1.7062500e-020
  3.2490405e+002  1.7376000e-020
  3.2501612e+002  1.6536100e-020
  3.2512829e+002  1.5440200e-020
  3.2524047e+002  1.4586000e-020
  3.2535254e+002  1.4450900e-020
  3.2546461e+002  1.4572500e-020
  3.2557658e+002  1.4202100e-020
  3.2568865e+002  1.3311700e-020
  3.2580062e+002  1.2338500e-020
  3.2591259e+002  1.1415600e-020
  3.2602457e+002  1.0660300e-020
  3.2613654e+002  1.0001500e-020
  3.2624841e+002  9.4534500e-021
  3.2636028e+002  8.9513800e-021
  3.2647215e+002  8.5058400e-021
  3.2658402e+002  8.1035500e-021
  3.2669580e+002  7.8298400e-021
  3.2680757e+002  7.7450600e-021
  3.2691934e+002  8.0980100e-021
  3.2703111e+002  8.7826300e-021
  3.2714288e+002  9.3083600e-021
  3.2725455e+002  9.3561500e-021
  3.2736622e+002  9.1081400e-021
  3.2747790e+002  8.8825400e-021
  3.2758957e+002  9.2174500e-021
  3.2770114e+002  1.0427800e-020
  3.2781271e+002  1.1898400e-020
  3.2792428e+002  1.2543300e-020
  3.2803585e+002  1.2250300e-020
  3.2814733e+002  1.1455100e-020
  3.2825880e+002  1.0616900e-020
  3.2837027e+002  9.8285300e-021
  3.2848174e+002  9.0897900e-021
  3.2859321e+002  8.3181400e-021
  3.2870458e+002  7.6007900e-021
  3.2881595e+002  6.9654200e-021
  3.2892733e+002  6.4808400e-021
  3.2903870e+002  6.0573600e-021
  3.2914997e+002  5.6827600e-021
  3.2926124e+002  5.3352600e-021
  3.2937251e+002  5.1047800e-021
  3.2948378e+002  4.9930200e-021
  3.2959506e+002  4.9362600e-021
  3.2970623e+002  4.8303300e-021
  3.2981740e+002  4.7143200e-021
  3.2992857e+002  4.7143400e-021
  3.3003974e+002  5.0783600e-021
  3.3015081e+002  5.9266700e-021
  3.3026189e+002  6.8213000e-021
  3.3037296e+002  7.1538700e-021
  3.3048403e+002  7.0188300e-021
  3.3059500e+002  6.6946300e-021
  3.3070607e+002  6.4813500e-021
  3.3081704e+002  6.7211800e-021
  3.3092792e+002  7.5493500e-021
  3.3103889e+002  8.1408800e-021
  3.3114976e+002  8.0420200e-021
  3.3126073e+002  7.5109900e-021
  3.3137160e+002  6.8819900e-021
  3.3148237e+002  6.2823100e-021
  3.3159325e+002  5.7899700e-021
  3.3170402e+002  5.3162800e-021
  3.3181479e+002  4.8431300e-021
  3.3192556e+002  4.3971500e-021
  3.3203633e+002  4.0100400e-021
  3.3214700e+002  3.6883100e-021
  3.3225768e+002  3.4515700e-021
  3.3236835e+002  3.2494500e-021
  3.3247902e+002  3.1064100e-021
  3.3258959e+002  3.0076200e-021
  3.3270026e+002  3.0044600e-021
  3.3281083e+002  3.1211400e-021
  3.3292141e+002  3.2998200e-021
  3.3303188e+002  3.4911900e-021
  3.3314245e+002  3.6534000e-021
  3.3325292e+002  3.7166000e-021
  3.3336339e+002  3.8820400e-021
  3.3347387e+002  4.4207800e-021
  3.3358424e+002  5.1831500e-021
  3.3369471e+002  5.6311600e-021
  3.3380508e+002  5.6977800e-021
  3.3391545e+002  5.4555600e-021
  3.3402582e+002  5.0480500e-021
  3.3413610e+002  4.5856000e-021
  3.3424637e+002  4.1566000e-021
  3.3435674e+002  3.7352400e-021
  3.3446691e+002  3.4969300e-021
  3.3457718e+002  3.2691300e-021
  3.3468736e+002  3.0333000e-021
  3.3479763e+002  2.7730400e-021
  3.3490780e+002  2.5341000e-021
  3.3501797e+002  2.3038700e-021
  3.3512804e+002  2.1221700e-021
  3.3523821e+002  1.9757500e-021
  3.3534829e+002  1.9031300e-021
  3.3545836e+002  1.8653700e-021
  3.3556833e+002  1.8451800e-021
  3.3567840e+002  1.7987800e-021
  3.3578837e+002  1.7502300e-021
  3.3589835e+002  1.7208500e-021
  3.3600832e+002  1.7973400e-021
  3.3611829e+002  1.9867500e-021
  3.3622826e+002  2.2430500e-021
  3.3633813e+002  2.4691400e-021
  3.3644800e+002  2.5867900e-021
  3.3655788e+002  2.5509300e-021
  3.3666775e+002  2.4976400e-021
  3.3677752e+002  2.5132400e-021
  3.3688729e+002  2.6627500e-021
  3.3699716e+002  2.9793300e-021
  3.3710684e+002  3.4438300e-021
  3.3721661e+002  3.6495600e-021
  3.3732638e+002  3.5661800e-021
  3.3743605e+002  3.3249500e-021
  3.3754572e+002  3.0749400e-021
  3.3765540e+002  2.7968400e-021
  3.3776497e+002  2.5419400e-021
  3.3787464e+002  2.2900500e-021
  3.3798421e+002  2.0684500e-021
  3.3809378e+002  1.8595800e-021
  3.3820336e+002  1.6857600e-021
  3.3831293e+002  1.5291800e-021
  3.3842240e+002  1.4261000e-021
  3.3853197e+002  1.3597700e-021
  3.3864144e+002  1.3413100e-021
  3.3875092e+002  1.3196000e-021
  3.3886029e+002  1.3042600e-021
  3.3896976e+002  1.2688100e-021
  3.3907913e+002  1.2498700e-021
  3.3918850e+002  1.2852400e-021
  3.3929788e+002  1.4060200e-021
  3.3940725e+002  1.5149800e-021
  3.3951652e+002  1.5552400e-021
  3.3962589e+002  1.5285400e-021
  3.3973516e+002  1.5134800e-021
  3.3984444e+002  1.5767500e-021
  3.3995361e+002  1.7958600e-021
  3.4006288e+002  2.0210500e-021
  3.4017205e+002  2.0945400e-021
  3.4028132e+002  2.0157800e-021
  3.4039050e+002  1.8797200e-021
  3.4049957e+002  1.7076700e-021
  3.4060874e+002  1.5458600e-021
  3.4071781e+002  1.3852700e-021
  3.4082698e+002  1.2549400e-021
  3.4093606e+002  1.1312600e-021
  3.4104513e+002  1.0301000e-021
  3.4115410e+002  9.3730800e-022
  3.4126317e+002  8.6848100e-022
  3.4137214e+002  8.0140900e-022
  3.4148112e+002  7.5312400e-022
  3.4159009e+002  7.1286200e-022
  3.4169906e+002  6.9498000e-022
  3.4180803e+002  6.8989400e-022
  3.4191690e+002  7.2286900e-022
  3.4202578e+002  7.5504900e-022
  3.4213465e+002  7.5718800e-022
  3.4224352e+002  7.2557500e-022
  3.4235239e+002  6.9418400e-022
  3.4246116e+002  6.7001000e-022
  3.4257004e+002  6.7738900e-022
  3.4267881e+002  7.2699300e-022
  3.4278758e+002  8.1887200e-022
  3.4289635e+002  8.7322400e-022
  3.4300502e+002  9.0689300e-022
  3.4311380e+002  9.2384300e-022
  3.4322247e+002  9.1597000e-022
  3.4333114e+002  8.8090100e-022
  3.4343981e+002  8.6105400e-022
  3.4354849e+002  8.6093300e-022
  3.4365706e+002  9.1179600e-022
  3.4376573e+002  1.0583800e-021
  3.4387430e+002  1.2523100e-021
  3.4398287e+002  1.3206000e-021
  3.4409145e+002  1.2853700e-021
  3.4420002e+002  1.1916200e-021
  3.4430849e+002  1.0922400e-021
  3.4441706e+002  1.0025400e-021
  3.4452553e+002  9.1802200e-022
  3.4463401e+002  8.4521100e-022
  3.4474248e+002  7.9247500e-022
  3.4485095e+002  7.4707200e-022
  3.4495932e+002  7.0177000e-022
  3.4506770e+002  6.5554200e-022
  3.4517617e+002  6.2658000e-022
  3.4528454e+002  6.1195700e-022
  3.4539291e+002  6.1653200e-022
  3.4550118e+002  6.5122600e-022
  3.4560956e+002  6.9655900e-022
  3.4571783e+002  7.0375500e-022
  3.4582620e+002  6.7596600e-022
  3.4593447e+002  6.3048900e-022
  3.4604274e+002  5.8845200e-022
  3.4615092e+002  5.5652300e-022
  3.4625919e+002  5.4191300e-022
  3.4636736e+002  5.3145200e-022
  3.4647563e+002  5.1338400e-022
  3.4658381e+002  4.8828900e-022
  3.4669198e+002  4.6462700e-022
  3.4680015e+002  4.4609100e-022
  3.4690822e+002  4.4626200e-022
  3.4701639e+002  4.8048900e-022
  3.4712447e+002  5.2959600e-022
  3.4723254e+002  5.4316900e-022
  3.4734061e+002  5.2731700e-022
  3.4744868e+002  4.9708300e-022
  3.4755676e+002  4.6229300e-022
  3.4766483e+002  4.2651800e-022
  3.4777280e+002  3.9320800e-022
  3.4788087e+002  3.6382600e-022
  3.4798884e+002  3.4081700e-022
  3.4809682e+002  3.1930300e-022
  3.4820479e+002  3.0000200e-022
  3.4831266e+002  2.8571000e-022
  3.4842063e+002  2.8150700e-022
  3.4852851e+002  2.8709200e-022
  3.4863648e+002  2.9450900e-022
  3.4874435e+002  2.9239400e-022
  3.4885222e+002  2.8376200e-022
  3.4896000e+002  2.7184000e-022
  3.4906787e+002  2.6376000e-022
  3.4917574e+002  2.6914200e-022
  3.4928351e+002  3.0415900e-022
  3.4939128e+002  3.5385500e-022
  3.4949916e+002  3.7911800e-022
  3.4960693e+002  3.7379600e-022
  3.4971460e+002  3.5599100e-022
  3.4982237e+002  3.3392500e-022
  3.4993015e+002  3.1627400e-022
  3.5003782e+002  3.0940200e-022
  3.5014559e+002  3.1041900e-022
  3.5025326e+002  3.0456700e-022
  3.5036093e+002  2.9227900e-022
  3.5046861e+002  2.7824200e-022
  3.5057618e+002  2.6547400e-022
  3.5068385e+002  2.5382300e-022
  3.5079152e+002  2.4483600e-022
  3.5089910e+002  2.4018300e-022
  3.5100667e+002  2.4875600e-022
  3.5111424e+002  2.7924300e-022
  3.5122181e+002  3.3911400e-022
  3.5132939e+002  3.9381800e-022
  3.5143696e+002  4.1344400e-022
  3.5154453e+002  4.0635700e-022
  3.5165200e+002  3.8769300e-022
  3.5175947e+002  3.6242700e-022
  3.5186705e+002  3.3656100e-022
  3.5197452e+002  3.1192400e-022
  3.5208199e+002  2.9190700e-022
  3.5218936e+002  2.7818900e-022
  3.5229684e+002  2.7504700e-022
  3.5240431e+002  2.8367000e-022
  3.5251168e+002  2.9485200e-022
  3.5261915e+002  2.9374200e-022
  3.5272653e+002  2.8027000e-022
  3.5283390e+002  2.6095500e-022
  3.5294127e+002  2.4161200e-022
  3.5304864e+002  2.2469700e-022
  3.5315602e+002  2.1436700e-022
  3.5326329e+002  2.0910600e-022
  3.5337066e+002  2.0169800e-022
  3.5347793e+002  1.8986700e-022
  3.5358530e+002  1.7674500e-022
  3.5369258e+002  1.6351300e-022
  3.5379985e+002  1.5141500e-022
  3.5390712e+002  1.4023800e-022
  3.5401439e+002  1.3116200e-022
  3.5412157e+002  1.2378600e-022
  3.5422884e+002  1.1913100e-022
  3.5433611e+002  1.1648700e-022
  3.5444328e+002  1.1386100e-022
  3.5455046e+002  1.1124200e-022
  3.5465773e+002  1.1056900e-022
  3.5476490e+002  1.1248400e-022
  3.5487207e+002  1.1607900e-022
  3.5497915e+002  1.1864200e-022
  3.5508632e+002  1.2013000e-022
  3.5519349e+002  1.1950400e-022
  3.5530056e+002  1.1576300e-022
  3.5540774e+002  1.0971700e-022
  3.5551481e+002  1.0386900e-022
  3.5562198e+002  9.9403900e-023
  3.5572905e+002  9.8922100e-023
  3.5583612e+002  1.0077000e-022
  3.5594320e+002  1.0050300e-022
  3.5605027e+002  9.7392400e-023
  3.5615724e+002  9.3782400e-023
  3.5626431e+002  9.1141700e-023
  3.5637129e+002  9.2135700e-023
  3.5647836e+002  1.0226400e-022
  3.5658533e+002  1.2425500e-022
  3.5669240e+002  1.4368700e-022
  3.5679938e+002  1.4956000e-022
  3.5690635e+002  1.4602300e-022
  3.5701332e+002  1.3911800e-022
  3.5712029e+002  1.3169100e-022
  3.5722717e+002  1.2647800e-022
  3.5733414e+002  1.2651500e-022
  3.5744111e+002  1.2844800e-022
  3.5754798e+002  1.2603900e-022
  3.5765496e+002  1.1998400e-022
  3.5776183e+002  1.1352500e-022
  3.5786870e+002  1.0797700e-022
  3.5797557e+002  1.0380900e-022
  3.5808255e+002  1.0056500e-022
  3.5818942e+002  9.7370900e-023
  3.5829619e+002  9.3167000e-023
  3.5840306e+002  8.7535100e-023
  3.5850994e+002  8.2149800e-023
  3.5861681e+002  7.8078300e-023
  3.5872358e+002  7.5919400e-023
  3.5883045e+002  7.5988100e-023
  3.5893723e+002  7.6729100e-023
  3.5904400e+002  7.7558400e-023
  3.5915087e+002  8.1105500e-023
  3.5925764e+002  8.8075900e-023
  3.5936441e+002  9.4830600e-023
  3.5947119e+002  9.7333300e-023
  3.5957796e+002  9.6024400e-023
  3.5968473e+002  9.2372200e-023
  3.5979150e+002  8.8495700e-023
  3.5989818e+002  8.5952300e-023
  3.6000495e+002  8.7120800e-023
  3.6011162e+002  9.1127500e-023
  3.6021839e+002  9.2723500e-023
  3.6032507e+002  9.0008100e-023
  3.6043184e+002  8.5297100e-023
  3.6053851e+002  7.9799000e-023
  3.6064518e+002  7.4636100e-023
  3.6075186e+002  7.0712600e-023
  3.6085853e+002  6.8642700e-023
  3.6096520e+002  6.7143800e-023
  3.6107187e+002  6.4666600e-023
  3.6117855e+002  6.1666400e-023
  3.6128522e+002  5.8594600e-023
  3.6139189e+002  5.5605300e-023
  3.6149846e+002  5.2281200e-023
  3.6160514e+002  4.8950200e-023
  3.6171171e+002  4.5805400e-023
  3.6181838e+002  4.3174100e-023
  3.6192495e+002  4.1230800e-023
  3.6203153e+002  4.0350200e-023
  3.6213820e+002  4.0774100e-023
  3.6224477e+002  4.1734300e-023
  3.6235134e+002  4.1554200e-023
  3.6245792e+002  4.0164300e-023
  3.6256449e+002  3.8368800e-023
  3.6267106e+002  3.6686100e-023
  3.6277763e+002  3.5611400e-023
  3.6288421e+002  3.5561500e-023
  3.6299078e+002  3.5804600e-023
  3.6309725e+002  3.5319900e-023
  3.6320382e+002  3.4454200e-023
  3.6331040e+002  3.3475200e-023
  3.6341687e+002  3.2474700e-023
  3.6352344e+002  3.1459100e-023
  3.6362991e+002  3.0484900e-023
  3.6373649e+002  2.9829500e-023
  3.6384296e+002  2.9374000e-023
  3.6394943e+002  2.8943300e-023
  3.6405590e+002  2.8612000e-023
  3.6416248e+002  2.8545900e-023
  3.6426895e+002  2.9164000e-023
  3.6437542e+002  3.1127800e-023
  3.6448189e+002  3.6194700e-023
  3.6458837e+002  4.3950500e-023
  3.6469484e+002  4.9911900e-023
  3.6480131e+002  5.1739400e-023
  3.6490778e+002  5.0985900e-023
  3.6501426e+002  4.8913300e-023
  3.6512063e+002  4.6732800e-023
  3.6522710e+002  4.5376400e-023
  3.6533357e+002  4.5863900e-023
  3.6543995e+002  4.8055900e-023
  3.6554642e+002  4.9795900e-023
  3.6565289e+002  4.9883900e-023
  3.6575926e+002  4.8121400e-023
  3.6586574e+002  4.5656300e-023
  3.6597211e+002  4.2932000e-023
  3.6607848e+002  4.0441100e-023
  3.6618495e+002  3.8393600e-023
  3.6629133e+002  3.6981500e-023
  3.6639770e+002  3.5679900e-023
  3.6650417e+002  3.4139000e-023
  3.6661054e+002  3.2568500e-023
  3.6671692e+002  3.0759300e-023
  3.6682329e+002  2.9084900e-023
  3.6692966e+002  2.7389200e-023
  3.6703603e+002  2.6041000e-023
  3.6714241e+002  2.4841900e-023
  3.6724878e+002  2.3665000e-023
  3.6735515e+002  2.2607400e-023
  3.6746152e+002  2.1791800e-023
  3.6756790e+002  2.1119700e-023
  3.6767427e+002  2.0664800e-023
  3.6778064e+002  2.0289400e-023
  3.6788701e+002  2.0220100e-023
  3.6799339e+002  2.0384800e-023
  3.6809966e+002  2.0766800e-023
  3.6820603e+002  2.1742000e-023
  3.6831240e+002  2.2730700e-023
  3.6841868e+002  2.3736300e-023
  3.6852505e+002  2.4430500e-023
  3.6863142e+002  2.4611800e-023
  3.6873769e+002  2.4407800e-023
  3.6884407e+002  2.3843100e-023
  3.6895034e+002  2.3151300e-023
  3.6905671e+002  2.2611000e-023
  3.6916298e+002  2.2231100e-023
  3.6926935e+002  2.1871800e-023
  3.6937563e+002  2.1443000e-023
  3.6948200e+002  2.0907800e-023
  3.6958827e+002  2.0418800e-023
  3.6969464e+002  1.9997100e-023
  3.6980092e+002  1.9891400e-023
  3.6990719e+002  2.0235700e-023
  3.7001356e+002  2.1232000e-023
  3.7011983e+002  2.1962300e-023
  3.7022611e+002  2.1697800e-023
  3.7033248e+002  2.1153600e-023
  3.7043875e+002  2.0612000e-023
  3.7054502e+002  2.0111600e-023
  3.7065140e+002  1.9988600e-023
  3.7075767e+002  2.0279200e-023
  3.7086394e+002  2.0419600e-023
  3.7097021e+002  2.0039300e-023
  3.7107649e+002  1.9450500e-023
  3.7118286e+002  1.8903300e-023
  3.7128913e+002  1.8271000e-023
  3.7139540e+002  1.7690300e-023
  3.7150168e+002  1.7111200e-023
  3.7160795e+002  1.6452800e-023
  3.7171422e+002  1.5767200e-023
  3.7182049e+002  1.5449100e-023
  3.7192677e+002  1.5214700e-023
  3.7203314e+002  1.4877800e-023
  3.7213941e+002  1.4608100e-023
  3.7224568e+002  1.4367300e-023
  3.7235196e+002  1.4039300e-023
  3.7245823e+002  1.3743300e-023
  3.7256450e+002  1.3570300e-023
  3.7267077e+002  1.3361900e-023
  3.7277705e+002  1.3353600e-023
  3.7288332e+002  1.3396600e-023
  3.7298959e+002  1.3906400e-023
  3.7309586e+002  1.4595100e-023
  3.7320214e+002  1.5701200e-023
  3.7330841e+002  1.6918400e-023
  3.7341468e+002  1.7893200e-023
  3.7352095e+002  1.8228000e-023
  3.7362723e+002  1.8412100e-023
  3.7373350e+002  1.8677700e-023
  3.7383977e+002  1.8975900e-023
  3.7394604e+002  1.9231500e-023
  3.7405232e+002  1.9323700e-023
  3.7415859e+002  1.9474600e-023
  3.7426486e+002  1.9526300e-023
  3.7437113e+002  1.9308700e-023
  3.7447741e+002  1.9067300e-023
  3.7458368e+002  1.8858700e-023
  3.7468995e+002  1.8470700e-023
  3.7479622e+002  1.8001400e-023
  3.7490250e+002  1.7543000e-023
  3.7500877e+002  1.6934700e-023
  3.7511504e+002  1.6412500e-023
  3.7522131e+002  1.5914000e-023
  3.7532759e+002  1.5395100e-023
  3.7543386e+002  1.4960200e-023
  3.7554013e+002  1.4808100e-023
  3.7564640e+002  1.4469500e-023
  3.7575268e+002  1.4252800e-023
  3.7585905e+002  1.3994600e-023
  3.7596532e+002  1.3646000e-023
  3.7607159e+002  1.3510900e-023
  3.7617786e+002  1.3302500e-023
  3.7628414e+002  1.2971500e-023
  3.7639041e+002  1.2824000e-023
  3.7649668e+002  1.2582500e-023
  3.7660295e+002  1.2492900e-023
  3.7670923e+002  1.2243400e-023
  3.7681550e+002  1.1988000e-023
  3.7692187e+002  1.1793100e-023
  3.7702814e+002  1.1680200e-023
  3.7713442e+002  1.1595300e-023
  3.7724069e+002  1.1520700e-023
  3.7734696e+002  1.1563300e-023
  3.7745323e+002  1.1623000e-023
  3.7755961e+002  1.1637900e-023
  3.7766588e+002  1.1629200e-023
  3.7777215e+002  1.1603500e-023
  3.7787842e+002  1.1722100e-023
  3.7798480e+002  1.1595000e-023
  3.7809107e+002  1.1509500e-023
  3.7819734e+002  1.1579600e-023
  3.7830371e+002  1.1608000e-023
  3.7840999e+002  1.1937200e-023
  3.7851626e+002  1.2291500e-023
  3.7862263e+002  1.2709900e-023
  3.7872890e+002  1.2979500e-023
  3.7883518e+002  1.3131600e-023
  3.7894155e+002  1.3179100e-023
  3.7904782e+002  1.3050000e-023
  3.7915419e+002  1.3053000e-023
  3.7926046e+002  1.3160000e-023
  3.7936684e+002  1.3578800e-023
  3.7947311e+002  1.3787800e-023
  3.7957938e+002  1.3756600e-023
  3.7968575e+002  1.3567900e-023
  3.7979213e+002  1.3422600e-023
  3.7989840e+002  1.3254700e-023
  3.8000477e+002  1.3044700e-023
  3.8011104e+002  1.2793100e-023
  3.8021742e+002  1.2636200e-023
  3.8032379e+002  1.2551100e-023
  3.8043006e+002  1.2440900e-023
  3.8053643e+002  1.2337600e-023
  3.8064281e+002  1.2199900e-023
  3.8074908e+002  1.2127600e-023
  3.8085545e+002  1.2011900e-023
  3.8096182e+002  1.1864800e-023
  3.8106820e+002  1.1811300e-023
  3.8117447e+002  1.1787100e-023
  3.8128084e+002  1.1736100e-023
  3.8138721e+002  1.1713400e-023
  3.8149359e+002  1.1629900e-023
  3.8159996e+002  1.1611300e-023
  3.8170633e+002  1.1561900e-023
  3.8181270e+002  1.1534600e-023
  3.8191907e+002  1.1575000e-023
  3.8202545e+002  1.1523800e-023
  3.8213182e+002  1.1374900e-023
  3.8223819e+002  1.1415500e-023
  3.8234456e+002  1.1351600e-023
  3.8245094e+002  1.1508500e-023
  3.8255731e+002  1.1595100e-023
  3.8266368e+002  1.1728900e-023
  3.8277005e+002  1.1779200e-023
  3.8287643e+002  1.1881600e-023
  3.8298290e+002  1.2024700e-023
  3.8308927e+002  1.2213200e-023
  3.8319564e+002  1.2306100e-023
  3.8330202e+002  1.2343100e-023
  3.8340849e+002  1.2329600e-023
  3.8351486e+002  1.2268900e-023
  3.8362123e+002  1.2380600e-023
  3.8372770e+002  1.2270200e-023
  3.8383408e+002  1.2304700e-023
  3.8394055e+002  1.2302200e-023
  3.8404692e+002  1.2262300e-023
  3.8415329e+002  1.2117800e-023
  3.8425977e+002  1.2072000e-023
  3.8436624e+002  1.2060200e-023
  3.8447261e+002  1.1908500e-023
  3.8457908e+002  1.1926300e-023
  3.8468546e+002  1.1775800e-023
  3.8479193e+002  1.1739900e-023
  3.8489840e+002  1.1668100e-023
  3.8500477e+002  1.1665800e-023
  3.8511124e+002  1.1650000e-023
  3.8521772e+002  1.1593100e-023
  3.8532409e+002  1.1556200e-023
  3.8543056e+002  1.1583100e-023
  3.8553703e+002  1.1455900e-023
  3.8564351e+002  1.1360500e-023
  3.8574998e+002  1.1438100e-023
  3.8585645e+002  1.1322300e-023
  3.8596292e+002  1.1456300e-023
  3.8606940e+002  1.1450600e-023
  3.8617587e+002  1.1425000e-023
  3.8628234e+002  1.1523800e-023
  3.8638881e+002  1.1501200e-023
  3.8649528e+002  1.1509900e-023
  3.8660176e+002  1.1463600e-023
  3.8670823e+002  1.1524600e-023
  3.8681470e+002  1.1709600e-023
  3.8692117e+002  1.1774500e-023
  3.8702765e+002  1.1920400e-023
  3.8713422e+002  1.2140000e-023
  3.8724069e+002  1.2321300e-023
  3.8734716e+002  1.2323100e-023
  3.8745374e+002  1.2432000e-023
  3.8756021e+002  1.2500000e-023
  3.8766668e+002  1.2576500e-023
  3.8777325e+002  1.2676500e-023
  3.8787972e+002  1.2764800e-023
  3.8798630e+002  1.2838800e-023
  3.8809277e+002  1.3003700e-023
  3.8819924e+002  1.3083600e-023
  3.8830581e+002  1.3053800e-023
  3.8841239e+002  1.3117700e-023
  3.8851886e+002  1.3175700e-023
  3.8862543e+002  1.3178400e-023
  3.8873190e+002  1.3251800e-023
  3.8883848e+002  1.3302700e-023
  3.8894505e+002  1.3422800e-023
  3.8905152e+002  1.3256800e-023
  3.8915809e+002  1.3210000e-023
  3.8926466e+002  1.3271500e-023
  3.8937124e+002  1.3205400e-023
  3.8947781e+002  1.3172400e-023
  3.8958428e+002  1.3252900e-023
  3.8969085e+002  1.3101400e-023
  3.8979743e+002  1.2936900e-023
  3.8990400e+002  1.2922400e-023
  3.9001057e+002  1.3040100e-023
  3.9011714e+002  1.3061000e-023
  3.9022371e+002  1.3020400e-023
  3.9033029e+002  1.3045600e-023
  3.9043686e+002  1.2975300e-023
  3.9054343e+002  1.3097100e-023
  3.9065000e+002  1.3002300e-023
  3.9075658e+002  1.2947000e-023
  3.9086315e+002  1.3023800e-023
  3.9096972e+002  1.3063000e-023
  3.9107639e+002  1.3066000e-023
  3.9118296e+002  1.3081400e-023
  3.9128954e+002  1.3078600e-023
  3.9139611e+002  1.3085200e-023
  3.9150268e+002  1.3019600e-023
  3.9160935e+002  1.3138800e-023
  3.9171593e+002  1.3137300e-023
  3.9182250e+002  1.3037600e-023
  3.9192917e+002  1.3274700e-023
  3.9203574e+002  1.3327700e-023
  3.9214231e+002  1.3312800e-023
  3.9224899e+002  1.3461900e-023
  3.9235556e+002  1.3366000e-023
  3.9246223e+002  1.3474800e-023
  3.9256880e+002  1.3568800e-023
  3.9267548e+002  1.3661600e-023
  3.9278205e+002  1.3719800e-023
  3.9288872e+002  1.3812700e-023
  3.9299529e+002  1.3939400e-023
  3.9310196e+002  1.4175400e-023
  3.9320854e+002  1.4376000e-023
  3.9331521e+002  1.4451300e-023
  3.9342188e+002  1.4737900e-023
  3.9352845e+002  1.4811900e-023
  3.9363513e+002  1.4927400e-023
  3.9374170e+002  1.5124100e-023
  3.9384837e+002  1.5347800e-023
  3.9395504e+002  1.5533500e-023
  3.9406161e+002  1.5742400e-023
  3.9416829e+002  1.5897400e-023
  3.9427496e+002  1.6117100e-023
  3.9438163e+002  1.6149100e-023
  3.9448820e+002  1.6415000e-023
  3.9459488e+002  1.6568300e-023
  3.9470155e+002  1.6662300e-023
  3.9480822e+002  1.6727900e-023
  3.9491489e+002  1.6757800e-023
  3.9502146e+002  1.7013100e-023
  3.9512814e+002  1.7123400e-023
  3.9523481e+002  1.7131000e-023
  3.9534148e+002  1.7351500e-023
  3.9544815e+002  1.7419700e-023
  3.9555483e+002  1.7358400e-023
  3.9566140e+002  1.7353600e-023
  3.9576807e+002  1.7350800e-023
  3.9587474e+002  1.7408500e-023
  3.9598141e+002  1.7365600e-023
  3.9608809e+002  1.7359000e-023
  3.9619476e+002  1.7279400e-023
  3.9630143e+002  1.7174900e-023
  3.9640810e+002  1.7020700e-023
  3.9651478e+002  1.7036200e-023
  3.9662145e+002  1.6973700e-023
  3.9672812e+002  1.6901600e-023
  3.9683469e+002  1.6832700e-023
  3.9694136e+002  1.6774100e-023
  3.9704804e+002  1.6601800e-023
  3.9715471e+002  1.6513900e-023
  3.9726138e+002  1.6549200e-023
  3.9736805e+002  1.6554200e-023
  3.9747473e+002  1.6771900e-023
  3.9758140e+002  1.6617700e-023
  3.9768807e+002  1.6597900e-023
  3.9779474e+002  1.6637500e-023
  3.9790141e+002  1.6604100e-023
  3.9800809e+002  1.6710300e-023
  3.9811476e+002  1.6646700e-023
  3.9822143e+002  1.6570000e-023
  3.9832810e+002  1.6607400e-023
  3.9843477e+002  1.6566900e-023
  3.9854135e+002  1.6520100e-023
  3.9864802e+002  1.6482700e-023
  3.9875469e+002  1.6403100e-023
  3.9886136e+002  1.6477500e-023
  3.9896804e+002  1.6560400e-023
  3.9907471e+002  1.6725700e-023
  3.9918138e+002  1.6728700e-023
  3.9928805e+002  1.6555500e-023
  3.9939462e+002  1.6681900e-023
  3.9950130e+002  1.6708600e-023
  3.9960797e+002  1.6532400e-023
  3.9971464e+002  1.6787300e-023
  3.9982131e+002  1.6884100e-023
  3.9992789e+002  1.7093700e-023
  4.0003456e+002  1.7249600e-023
  4.0014123e+002  1.7341800e-023
  4.0024790e+002  1.7211500e-023
  4.0035447e+002  1.7419800e-023
  4.0046115e+002  1.7642700e-023
  4.0056782e+002  1.7686700e-023
  4.0067439e+002  1.7793500e-023
  4.0078106e+002  1.8076400e-023
  4.0088773e+002  1.8410000e-023
  4.0099431e+002  1.8821800e-023
  4.0110098e+002  1.8839200e-023
  4.0120755e+002  1.9079700e-023
  4.0131422e+002  1.9058000e-023
  4.0142080e+002  1.9381100e-023
  4.0152747e+002  1.9610500e-023
  4.0163404e+002  1.9904200e-023
  4.0174071e+002  2.0055100e-023
  4.0184728e+002  2.0354000e-023
  4.0195386e+002  2.0520800e-023
  4.0206053e+002  2.0591100e-023
  4.0216710e+002  2.0895600e-023
  4.0227367e+002  2.0894700e-023
  4.0238034e+002  2.1030500e-023
  4.0248692e+002  2.1051500e-023
  4.0259349e+002  2.1028000e-023
  4.0270006e+002  2.1295700e-023
  4.0280663e+002  2.1268000e-023
  4.0291321e+002  2.1424000e-023
  4.0301978e+002  2.1270100e-023
  4.0312635e+002  2.1562300e-023
  4.0323292e+002  2.1478700e-023
  4.0333949e+002  2.1400300e-023
  4.0344607e+002  2.1317300e-023
  4.0355264e+002  2.1262100e-023
  4.0365921e+002  2.1203100e-023
  4.0376568e+002  2.1409600e-023
  4.0387226e+002  2.1228200e-023
  4.0397883e+002  2.1207400e-023
  4.0408530e+002  2.1395700e-023
  4.0419187e+002  2.0947900e-023
  4.0429834e+002  2.1010500e-023
  4.0440492e+002  2.1178100e-023
  4.0451139e+002  2.1342100e-023
  4.0461786e+002  2.0963200e-023
  4.0472443e+002  2.0958100e-023
  4.0483090e+002  2.1163400e-023
  4.0493738e+002  2.1198300e-023
  4.0504385e+002  2.0835700e-023
  4.0515032e+002  2.1199900e-023
  4.0525679e+002  2.1128200e-023
  4.0536327e+002  2.1637700e-023
  4.0546974e+002  2.1281900e-023
  4.0557621e+002  2.1571700e-023
  4.0568268e+002  2.2082400e-023
  4.0578915e+002  2.1900300e-023
  4.0589553e+002  2.2293200e-023
  4.0600200e+002  2.2118800e-023
  4.0610837e+002  2.2712200e-023
  4.0621484e+002  2.3057900e-023
  4.0632122e+002  2.2874500e-023
  4.0642759e+002  2.3578700e-023
  4.0653406e+002  2.3734300e-023
  4.0664043e+002  2.4378400e-023
  4.0667152e+002  2.4902900e-023
  4.0691756e+002  2.5736200e-023
  4.0716370e+002  2.6489100e-023
  4.0740973e+002  2.7436700e-023
  4.0765567e+002  2.8502100e-023
  4.0790160e+002  2.9527800e-023
  4.0814744e+002  3.0470900e-023
  4.0839327e+002  3.1345500e-023
  4.0863911e+002  3.2293600e-023
  4.0888485e+002  3.3043800e-023
  4.0913058e+002  3.3522200e-023
  4.0937622e+002  3.4016100e-023
  4.0962185e+002  3.4327100e-023
  4.0986739e+002  3.4763100e-023
  4.1011292e+002  3.4825600e-023
  4.1035846e+002  3.4994600e-023
  4.1060390e+002  3.5089100e-023
  4.1084923e+002  3.5102100e-023
  4.1109457e+002  3.4822200e-023
  4.1133990e+002  3.4550200e-023
  4.1158514e+002  3.4242000e-023
  4.1183037e+002  3.3924000e-023
  4.1207561e+002  3.3427900e-023
  4.1232075e+002  3.3051800e-023
  4.1256578e+002  3.2678300e-023
  4.1281082e+002  3.2495200e-023
  4.1305585e+002  3.2473500e-023
  4.1330079e+002  3.2250000e-023
  4.1354573e+002  3.2493800e-023
  4.1379056e+002  3.2603300e-023
  4.1403540e+002  3.2956500e-023
  4.1428023e+002  3.3508500e-023
  4.1452497e+002  3.4069400e-023
  4.1476961e+002  3.4953800e-023
  4.1501434e+002  3.5872600e-023
  4.1525888e+002  3.6775400e-023
  4.1550351e+002  3.7851300e-023
  4.1574805e+002  3.8905300e-023
  4.1599248e+002  3.9912500e-023
  4.1623692e+002  4.0793100e-023
  4.1648136e+002  4.1936600e-023
  4.1672569e+002  4.2646000e-023
  4.1696993e+002  4.3251000e-023
  4.1721426e+002  4.3841100e-023
  4.1745850e+002  4.4305700e-023
  4.1770264e+002  4.4568800e-023
  4.1794677e+002  4.4691100e-023
  4.1819081e+002  4.4715400e-023
  4.1843495e+002  4.4592700e-023
  4.1867888e+002  4.4428000e-023
  4.1892292e+002  4.4178900e-023
  4.1916675e+002  4.3872400e-023
  4.1941069e+002  4.3619000e-023
  4.1965453e+002  4.3530700e-023
  4.1989826e+002  4.3789000e-023
  4.2014200e+002  4.4127500e-023
  4.2038573e+002  4.4701700e-023
  4.2062937e+002  4.5487800e-023
  4.2087301e+002  4.6384300e-023
  4.2111664e+002  4.7397800e-023
  4.2136018e+002  4.8736300e-023
  4.2160361e+002  5.0255200e-023
  4.2184705e+002  5.1930900e-023
  4.2209049e+002  5.3807900e-023
  4.2233382e+002  5.5852200e-023
  4.2257716e+002  5.8036600e-023
  4.2282050e+002  6.0186600e-023
  4.2306373e+002  6.2279900e-023
  4.2330687e+002  6.4310900e-023
  4.2355010e+002  6.6466700e-023
  4.2379314e+002  6.8635400e-023
  4.2403628e+002  7.0823500e-023
  4.2427931e+002  7.2844200e-023
  4.2452225e+002  7.4677800e-023
  4.2476519e+002  7.6298000e-023
  4.2500812e+002  7.7417600e-023
  4.2525096e+002  7.8369500e-023
  4.2549379e+002  7.8989700e-023
  4.2573663e+002  7.9415800e-023
  4.2597937e+002  7.9559100e-023
  4.2622200e+002  7.9328100e-023
  4.2646474e+002  7.8767200e-023
  4.2670728e+002  7.8359200e-023
  4.2694991e+002  7.7775200e-023
  4.2719245e+002  7.6949500e-023
  4.2743488e+002  7.5864600e-023
  4.2767732e+002  7.4945400e-023
  4.2791976e+002  7.3902300e-023
  4.2816209e+002  7.2963100e-023
  4.2840443e+002  7.1922100e-023
  4.2864677e+002  7.0980000e-023
  4.2888900e+002  7.0202800e-023
  4.2913124e+002  6.9752400e-023
  4.2937338e+002  6.9606000e-023
  4.2961551e+002  6.9977600e-023
  4.2985755e+002  7.0422500e-023
  4.3009959e+002  7.1205200e-023
  4.3034162e+002  7.2356600e-023
  4.3058356e+002  7.3944300e-023
  4.3082549e+002  7.5703100e-023
  4.3106743e+002  7.7570400e-023
  4.3130927e+002  7.9711700e-023
  4.3155100e+002  8.1998400e-023
  4.3179284e+002  8.4094300e-023
  4.3203448e+002  8.6271500e-023
  4.3227621e+002  8.8314600e-023
  4.3251785e+002  9.0040400e-023
  4.3275949e+002  9.1604000e-023
  4.3300102e+002  9.2783600e-023
  4.3324256e+002  9.3700900e-023
  4.3348400e+002  9.4209200e-023
  4.3372543e+002  9.4459000e-023
  4.3396687e+002  9.4525500e-023
  4.3420821e+002  9.4247300e-023
  4.3444954e+002  9.4027300e-023
  4.3469088e+002  9.3551400e-023
  4.3493212e+002  9.3114200e-023
  4.3517335e+002  9.2692200e-023
  4.3541449e+002  9.2574500e-023
  4.3565563e+002  9.2487900e-023
  4.3589666e+002  9.2562500e-023
  4.3613780e+002  9.2961100e-023
  4.3637873e+002  9.3685900e-023
  4.3661977e+002  9.4652600e-023
  4.3686071e+002  9.5880500e-023
  4.3710154e+002  9.7683400e-023
  4.3734248e+002  9.9825200e-023
  4.3758322e+002  1.0261200e-022
  4.3782405e+002  1.0573200e-022
  4.3806479e+002  1.0933200e-022
  4.3830553e+002  1.1316800e-022
  4.3854616e+002  1.1718700e-022
  4.3878680e+002  1.2139800e-022
  4.3902744e+002  1.2581800e-022
  4.3926798e+002  1.3057400e-022
  4.3950851e+002  1.3544400e-022
  4.3974895e+002  1.4057000e-022
  4.3998939e+002  1.4564000e-022
  4.4022982e+002  1.5062800e-022
  4.4047016e+002  1.5520200e-022
  4.4071050e+002  1.5955700e-022
  4.4095083e+002  1.6385100e-022
  4.4119107e+002  1.6810700e-022
  4.4143131e+002  1.7191300e-022
  4.4167144e+002  1.7546800e-022
  4.4191158e+002  1.7857800e-022
  4.4215172e+002  1.8114500e-022
  4.4239175e+002  1.8344100e-022
  4.4263179e+002  1.8510200e-022
  4.4287183e+002  1.8602900e-022
  4.4311176e+002  1.8648200e-022
  4.4335170e+002  1.8619900e-022
  4.4359154e+002  1.8536600e-022
  4.4383147e+002  1.8408700e-022
  4.4407121e+002  1.8221600e-022
  4.4431105e+002  1.7992500e-022
  4.4455078e+002  1.7726200e-022
  4.4479052e+002  1.7457900e-022
  4.4503016e+002  1.7188500e-022
  4.4526980e+002  1.6896300e-022
  4.4550943e+002  1.6622400e-022
  4.4574897e+002  1.6374100e-022
  4.4598851e+002  1.6166900e-022
  4.4622794e+002  1.5999200e-022
  4.4646748e+002  1.5882200e-022
  4.4670692e+002  1.5787500e-022
  4.4694625e+002  1.5776800e-022
  4.4718559e+002  1.5845000e-022
  4.4742493e+002  1.5952600e-022
  4.4766426e+002  1.6142800e-022
  4.4790350e+002  1.6388100e-022
  4.4814264e+002  1.6693300e-022
  4.4838188e+002  1.7046700e-022
  4.4862101e+002  1.7448800e-022
  4.4886015e+002  1.7868600e-022
  4.4909919e+002  1.8295400e-022
  4.4933822e+002  1.8710800e-022
  4.4957726e+002  1.9123700e-022
  4.4981620e+002  1.9533900e-022
  4.5005513e+002  2.0120800e-022
  4.5029407e+002  2.0516600e-022
  4.5053291e+002  2.0664400e-022
  4.5077175e+002  2.0663200e-022
  4.5101058e+002  2.0709800e-022
  4.5124932e+002  2.0757100e-022
  4.5148806e+002  2.0775900e-022
  4.5172679e+002  2.0768900e-022
  4.5196543e+002  2.0731600e-022
  4.5220407e+002  2.0727600e-022
  4.5244271e+002  2.0794800e-022
  4.5268134e+002  2.0759100e-022
  4.5291988e+002  2.0582700e-022
  4.5315832e+002  2.0427600e-022
  4.5339685e+002  2.0368000e-022
  4.5363529e+002  2.0345000e-022
  4.5387363e+002  2.0370100e-022
  4.5411207e+002  2.0499800e-022
  4.5435040e+002  2.0697600e-022
  4.5458874e+002  2.0951700e-022
  4.5482698e+002  2.1295200e-022
  4.5506521e+002  2.1696700e-022
  4.5530345e+002  2.2156700e-022
  4.5554159e+002  2.2652700e-022
  4.5577983e+002  2.3202000e-022
  4.5601786e+002  2.3817800e-022
  4.5625600e+002  2.4531800e-022
  4.5649404e+002  2.5304100e-022
  4.5673207e+002  2.6115300e-022
  4.5697011e+002  2.6973700e-022
  4.5720805e+002  2.7872900e-022
  4.5744599e+002  2.8762200e-022
  4.5768392e+002  2.9665300e-022
  4.5792176e+002  3.0599700e-022
  4.5815960e+002  3.1540800e-022
  4.5839743e+002  3.2473300e-022
  4.5863517e+002  3.3411500e-022
  4.5887291e+002  3.4338000e-022
  4.5911065e+002  3.5278600e-022
  4.5934838e+002  3.6194500e-022
  4.5958602e+002  3.7101400e-022
  4.5982366e+002  3.7973800e-022
  4.6006120e+002  3.8807400e-022
  4.6029883e+002  3.9583600e-022
  4.6053637e+002  4.0286800e-022
  4.6077391e+002  4.0899000e-022
  4.6101134e+002  4.1411400e-022
  4.6124878e+002  4.1807100e-022
  4.6148622e+002  4.2110900e-022
  4.6172366e+002  4.2279200e-022
  4.6196099e+002  4.2334700e-022
  4.6219833e+002  4.2254200e-022
  4.6243567e+002  4.2070400e-022
  4.6267291e+002  4.1770500e-022
  4.6291014e+002  4.1419800e-022
  4.6314738e+002  4.0977800e-022
  4.6338462e+002  4.0497500e-022
  4.6362176e+002  3.9937400e-022
  4.6385889e+002  3.9370000e-022
  4.6409603e+002  3.8770700e-022
  4.6433307e+002  3.8196400e-022
  4.6457010e+002  3.7647300e-022
  4.6480714e+002  3.7126200e-022
  4.6504418e+002  3.6653600e-022
  4.6528112e+002  3.6274300e-022
  4.6551805e+002  3.5959600e-022
  4.6575499e+002  3.5732700e-022
  4.6599183e+002  3.5597200e-022
  4.6622877e+002  3.5594300e-022
  4.6646560e+002  3.5676500e-022
  4.6670234e+002  3.5890900e-022
  4.6693918e+002  3.6218800e-022
  4.6717592e+002  3.6657200e-022
  4.6741265e+002  3.7232600e-022
  4.6764929e+002  3.7880700e-022
  4.6788603e+002  3.8512300e-022
  4.6812267e+002  3.9157300e-022
  4.6835930e+002  3.9785400e-022
  4.6859584e+002  4.0406800e-022
  4.6883248e+002  4.0991800e-022
  4.6906902e+002  4.1595600e-022
  4.6930555e+002  4.2123700e-022
  4.6954199e+002  4.2576300e-022
  4.6977853e+002  4.2965800e-022
  4.7001497e+002  4.3297300e-022
  4.7025140e+002  4.3533100e-022
  4.7048774e+002  4.3726300e-022
  4.7072408e+002  4.3853900e-022
  4.7096042e+002  4.3941100e-022
  4.7119675e+002  4.3980200e-022
  4.7143309e+002  4.3971000e-022
  4.7166933e+002  4.3950300e-022
  4.7190557e+002  4.3931500e-022
  4.7214180e+002  4.3910000e-022
  4.7237804e+002  4.3906400e-022
  4.7261418e+002  4.3925000e-022
  4.7285032e+002  4.4004600e-022
  4.7308645e+002  4.4124600e-022
  4.7332259e+002  4.4314700e-022
  4.7355863e+002  4.4560600e-022
  4.7379467e+002  4.4821800e-022
  4.7403070e+002  4.5157900e-022
  4.7426674e+002  4.5625000e-022
  4.7450278e+002  4.6163200e-022
  4.7473872e+002  4.6833500e-022
  4.7497465e+002  4.7590700e-022
  4.7521059e+002  4.8466300e-022
  4.7544643e+002  4.9421400e-022
  4.7568237e+002  5.0482400e-022
  4.7591820e+002  5.1604900e-022
  4.7615404e+002  5.2823100e-022
  4.7638978e+002  5.4103300e-022
  4.7662562e+002  5.5445200e-022
  4.7686136e+002  5.6824200e-022
  4.7709709e+002  5.8253900e-022
  4.7733283e+002  5.9721000e-022
  4.7756857e+002  6.1217000e-022
  4.7780421e+002  6.2716600e-022
  4.7803984e+002  6.4274500e-022
  4.7827548e+002  6.5836600e-022
  4.7851112e+002  6.7431000e-022
  4.7874666e+002  6.9035000e-022
  4.7898229e+002  7.0637100e-022
  4.7921783e+002  7.2225000e-022
  4.7945337e+002  7.3832600e-022
  4.7968891e+002  7.5406500e-022
  4.7992434e+002  7.6953800e-022
  4.8015978e+002  7.8455900e-022
  4.8039532e+002  7.9898100e-022
  4.8063066e+002  8.1217100e-022
  4.8086610e+002  8.2428300e-022
  4.8110153e+002  8.3543800e-022
  4.8133687e+002  8.4593900e-022
  4.8157221e+002  8.5484700e-022
  4.8180755e+002  8.6210700e-022
  4.8204288e+002  8.6767300e-022
  4.8227812e+002  8.7160100e-022
  4.8251346e+002  8.7361900e-022
  4.8274870e+002  8.7412600e-022
  4.8298393e+002  8.7268600e-022
  4.8321917e+002  8.7048700e-022
  4.8345431e+002  8.6738600e-022
  4.8368955e+002  8.6308600e-022
  4.8392469e+002  8.5757200e-022
  4.8415982e+002  8.5124900e-022
  4.8439496e+002  8.4401300e-022
  4.8463010e+002  8.3645600e-022
  4.8486514e+002  8.2853900e-022
  4.8510027e+002  8.2079200e-022
  4.8533531e+002  8.1299800e-022
  4.8557035e+002  8.0560700e-022
  4.8580539e+002  7.9850400e-022
  4.8604042e+002  7.9218800e-022
  4.8627536e+002  7.8641500e-022
  4.8651030e+002  7.8165100e-022
  4.8674534e+002  7.7773500e-022
  4.8698028e+002  7.7502700e-022
  4.8721511e+002  7.7339700e-022
  4.8745005e+002  7.7311700e-022
  4.8768499e+002  7.7387400e-022
  4.8791983e+002  7.7594300e-022
  4.8815466e+002  7.7938900e-022
  4.8838950e+002  7.8372400e-022
  4.8862434e+002  7.8895200e-022
  4.8885918e+002  7.9512500e-022
  4.8909392e+002  8.0179000e-022
  4.8932875e+002  8.0918100e-022
  4.8956349e+002  8.1670900e-022
  4.8979823e+002  8.2447400e-022
  4.9003297e+002  8.3183500e-022
  4.9026770e+002  8.3935200e-022
  4.9050244e+002  8.4615600e-022
  4.9073708e+002  8.5274200e-022
  4.9097182e+002  8.5847400e-022
  4.9120646e+002  8.6395200e-022
  4.9144109e+002  8.6865900e-022
  4.9167573e+002  8.7217700e-022
  4.9191037e+002  8.7568600e-022
  4.9214501e+002  8.7911900e-022
  4.9237954e+002  8.8192600e-022
  4.9261418e+002  8.8383100e-022
  4.9284872e+002  8.8536700e-022
  4.9308326e+002  8.8726500e-022
  4.9331780e+002  8.8886100e-022
  4.9355233e+002  8.9055400e-022
  4.9378687e+002  8.9217200e-022
  4.9402131e+002  8.9425500e-022
  4.9425585e+002  8.9622100e-022
  4.9449028e+002  8.9863400e-022
  4.9472472e+002  9.0185400e-022
  4.9495926e+002  9.0583200e-022
  4.9519370e+002  9.1012400e-022
  4.9542814e+002  9.1542900e-022
  4.9566247e+002  9.2164800e-022
  4.9589691e+002  9.2861500e-022
  4.9613135e+002  9.3673400e-022
  4.9636569e+002  9.4583600e-022
  4.9660003e+002  9.5598100e-022
  4.9683446e+002  9.6718900e-022
  4.9706880e+002  9.7921700e-022
  4.9730314e+002  9.9235800e-022
  4.9753748e+002  1.0062000e-021
  4.9777171e+002  1.0214800e-021
  4.9800605e+002  1.0370200e-021
  4.9824039e+002  1.0528700e-021
  4.9847463e+002  1.0678200e-021
  4.9870887e+002  1.0913300e-021
  4.9894320e+002  1.1066900e-021
  4.9917744e+002  1.1287100e-021
  4.9941168e+002  1.1524700e-021
  4.9964592e+002  1.1752000e-021
  4.9988015e+002  1.1923000e-021
  5.0011439e+002  1.2125600e-021
  5.0034853e+002  1.2344000e-021
  5.0058277e+002  1.2599600e-021
  5.0081691e+002  1.2833600e-021
  5.0105114e+002  1.3072200e-021
  5.0128528e+002  1.3325600e-021
  5.0151942e+002  1.3526600e-021
  5.0175366e+002  1.3770100e-021
  5.0198780e+002  1.4026200e-021
  5.0222193e+002  1.4264700e-021
  5.0245607e+002  1.4476000e-021
  5.0269021e+002  1.4725900e-021
  5.0292425e+002  1.4972800e-021
  5.0315838e+002  1.5128300e-021
  5.0339252e+002  1.5316600e-021
  5.0362656e+002  1.5509900e-021
  5.0386070e+002  1.5651200e-021
  5.0409474e+002  1.5845300e-021
  5.0432877e+002  1.5967500e-021
  5.0456291e+002  1.6042100e-021
  5.0479695e+002  1.6154800e-021
  5.0503099e+002  1.6272100e-021
  5.0526503e+002  1.6384600e-021
  5.0549906e+002  1.6436900e-021
  5.0573310e+002  1.6486100e-021
  5.0596714e+002  1.6504700e-021
  5.0620118e+002  1.6489800e-021
  5.0643521e+002  1.6499600e-021
  5.0666915e+002  1.6499900e-021
  5.0690319e+002  1.6476300e-021
  5.0713723e+002  1.6432400e-021
  5.0737117e+002  1.6421900e-021
  5.0760520e+002  1.6382800e-021
  5.0783914e+002  1.6301800e-021
  5.0807308e+002  1.6201100e-021
  5.0830712e+002  1.6102100e-021
  5.0854106e+002  1.6069600e-021
  5.0877499e+002  1.5992800e-021
  5.0900903e+002  1.5942300e-021
  5.0924297e+002  1.5909300e-021
  5.0947691e+002  1.5808900e-021
  5.0971084e+002  1.5771000e-021
  5.0994478e+002  1.5737900e-021
  5.1017872e+002  1.5708000e-021
  5.1041266e+002  1.5651400e-021
  5.1064660e+002  1.5655600e-021
  5.1088053e+002  1.5654800e-021
  5.1111447e+002  1.5600400e-021
  5.1134841e+002  1.5635100e-021
  5.1158235e+002  1.5663000e-021
  5.1181618e+002  1.5716700e-021
  5.1205012e+002  1.5730900e-021
  5.1228406e+002  1.5797400e-021
  5.1251800e+002  1.5816400e-021
  5.1275184e+002  1.5891800e-021
  5.1298577e+002  1.5991700e-021
  5.1321971e+002  1.6043700e-021
  5.1345365e+002  1.6152000e-021
  5.1368749e+002  1.6231600e-021
  5.1392143e+002  1.6356200e-021
  5.1415526e+002  1.6455400e-021
  5.1438920e+002  1.6501700e-021
  5.1462314e+002  1.6611100e-021
  5.1485698e+002  1.6677300e-021
  5.1509091e+002  1.6750600e-021
  5.1532475e+002  1.6825000e-021
  5.1555869e+002  1.6931800e-021
  5.1579253e+002  1.6996500e-021
  5.1602647e+002  1.7111700e-021
  5.1626040e+002  1.7175500e-021
  5.1649424e+002  1.7210400e-021
  5.1672818e+002  1.7315100e-021
  5.1696202e+002  1.7388300e-021
  5.1719595e+002  1.7427000e-021
  5.1742979e+002  1.7489200e-021
  5.1766373e+002  1.7545700e-021
  5.1789757e+002  1.7616500e-021
  5.1813151e+002  1.7724300e-021
  5.1836544e+002  1.7814800e-021
  5.1859928e+002  1.7865500e-021
  5.1883322e+002  1.7981900e-021
  5.1906716e+002  1.8003800e-021
  5.1930099e+002  1.8110900e-021
  5.1953493e+002  1.8160100e-021
  5.1976887e+002  1.8219900e-021
  5.2000271e+002  1.8405100e-021
  5.2023665e+002  1.8472700e-021
  5.2047058e+002  1.8552400e-021
  5.2070442e+002  1.8606200e-021
  5.2093836e+002  1.8808700e-021
  5.2117230e+002  1.8950100e-021
  5.2140623e+002  1.9094300e-021
  5.2164017e+002  1.9209600e-021
  5.2187411e+002  1.9345600e-021
  5.2210805e+002  1.9512500e-021
  5.2234199e+002  1.9670800e-021
  5.2257592e+002  1.9853800e-021
  5.2280986e+002  2.0030400e-021
  5.2304380e+002  2.0226500e-021
  5.2327774e+002  2.0407600e-021
  5.2351167e+002  2.0609500e-021
  5.2374561e+002  2.0774500e-021
  5.2397955e+002  2.1078600e-021
  5.2421359e+002  2.1317900e-021
  5.2444753e+002  2.1479700e-021
  5.2468146e+002  2.1673600e-021
  5.2491550e+002  2.1960600e-021
  5.2514944e+002  2.2186100e-021
  5.2538348e+002  2.2421200e-021
  5.2561741e+002  2.2601300e-021
  5.2585145e+002  2.2878700e-021
  5.2608549e+002  2.3154800e-021
  5.2631943e+002  2.3392600e-021
  5.2655347e+002  2.3601400e-021
  5.2678750e+002  2.3844800e-021
  5.2702154e+002  2.4013000e-021
  5.2725558e+002  2.4297600e-021
  5.2748962e+002  2.4573700e-021
  5.2772365e+002  2.4780100e-021
  5.2795769e+002  2.5007500e-021
  5.2819173e+002  2.5269200e-021
  5.2842577e+002  2.5508900e-021
  5.2865990e+002  2.5687500e-021
  5.2889394e+002  2.5930400e-021
  5.2912808e+002  2.6181400e-021
  5.2936212e+002  2.6337600e-021
  5.2959626e+002  2.6573700e-021
  5.2983029e+002  2.6818500e-021
  5.3006443e+002  2.7017900e-021
  5.3029857e+002  2.7217000e-021
  5.3053271e+002  2.7389000e-021
  5.3076684e+002  2.7546400e-021
  5.3100098e+002  2.7734300e-021
  5.3123512e+002  2.7926000e-021
  5.3146926e+002  2.8009900e-021
  5.3170349e+002  2.8143700e-021
  5.3193763e+002  2.8289100e-021
  5.3217187e+002  2.8378100e-021
  5.3240601e+002  2.8481300e-021
  5.3264024e+002  2.8613200e-021
  5.3287448e+002  2.8716700e-021
  5.3310872e+002  2.8791900e-021
  5.3334296e+002  2.8873200e-021
  5.3357720e+002  2.8840800e-021
  5.3381143e+002  2.8895600e-021
  5.3404567e+002  2.8881400e-021
  5.3427991e+002  2.8919700e-021
  5.3451425e+002  2.8936300e-021
  5.3474848e+002  2.8953500e-021
  5.3498282e+002  2.8939000e-021
  5.3521716e+002  2.8944000e-021
  5.3545150e+002  2.8911300e-021
  5.3568583e+002  2.8937300e-021
  5.3592017e+002  2.8925000e-021
  5.3615451e+002  2.8941200e-021
  5.3638885e+002  2.8869500e-021
  5.3662328e+002  2.8920900e-021
  5.3685762e+002  2.8893700e-021
  5.3709206e+002  2.8876800e-021
  5.3732640e+002  2.8885900e-021
  5.3756083e+002  2.8913200e-021
  5.3779527e+002  2.8944300e-021
  5.3802971e+002  2.9047300e-021
  5.3826425e+002  2.8994400e-021
  5.3849868e+002  2.9015400e-021
  5.3873312e+002  2.9108700e-021
  5.3896766e+002  2.9180600e-021
  5.3920220e+002  2.9269300e-021
  5.3943663e+002  2.9364800e-021
  5.3967117e+002  2.9450200e-021
  5.3990571e+002  2.9593900e-021
  5.4014035e+002  2.9732600e-021
  5.4037488e+002  2.9855800e-021
  5.4060952e+002  2.9968900e-021
  5.4084406e+002  3.0105800e-021
  5.4107870e+002  3.0138100e-021
  5.4131333e+002  3.0291000e-021
  5.4154797e+002  3.0454300e-021
  5.4178261e+002  3.0573400e-021
  5.4201725e+002  3.0720700e-021
  5.4225198e+002  3.0837900e-021
  5.4248662e+002  3.1018300e-021
  5.4272136e+002  3.1182700e-021
  5.4295610e+002  3.1303300e-021
  5.4319083e+002  3.1451800e-021
  5.4342557e+002  3.1592400e-021
  5.4366031e+002  3.1678800e-021
  5.4389515e+002  3.1790200e-021
  5.4412988e+002  3.1976800e-021
  5.4436472e+002  3.2053000e-021
  5.4459956e+002  3.2161300e-021
  5.4483440e+002  3.2261600e-021
  5.4506923e+002  3.2364500e-021
  5.4530417e+002  3.2492300e-021
  5.4553901e+002  3.2625900e-021
  5.4577394e+002  3.2688100e-021
  5.4600888e+002  3.2787200e-021
  5.4624382e+002  3.2883500e-021
  5.4647876e+002  3.2934600e-021
  5.4671369e+002  3.3000400e-021
  5.4694873e+002  3.3141500e-021
  5.4718377e+002  3.3226100e-021
  5.4741871e+002  3.3287100e-021
  5.4765374e+002  3.3401900e-021
  5.4788888e+002  3.3455200e-021
  5.4812392e+002  3.3525100e-021
  5.4835896e+002  3.3529200e-021
  5.4859409e+002  3.3684500e-021
  5.4882923e+002  3.3712000e-021
  5.4906437e+002  3.3783600e-021
  5.4929950e+002  3.3875200e-021
  5.4953474e+002  3.3971500e-021
  5.4976988e+002  3.4030800e-021
  5.5000512e+002  3.4092300e-021
  5.5024035e+002  3.4188700e-021
  5.5047559e+002  3.4252900e-021
  5.5071083e+002  3.4363500e-021
  5.5094617e+002  3.4393400e-021
  5.5118150e+002  3.4487700e-021
  5.5141674e+002  3.4550900e-021
  5.5165208e+002  3.4635100e-021
  5.5188751e+002  3.4731300e-021
  5.5212285e+002  3.4822400e-021
  5.5235829e+002  3.4882500e-021
  5.5259373e+002  3.4956500e-021
  5.5282916e+002  3.5070500e-021
  5.5306460e+002  3.5202000e-021
  5.5330004e+002  3.5302000e-021
  5.5353557e+002  3.5381100e-021
  5.5377111e+002  3.5516600e-021
  5.5400665e+002  3.5658400e-021
  5.5424219e+002  3.5728400e-021
  5.5447772e+002  3.5781600e-021
  5.5471336e+002  3.5882200e-021
  5.5494900e+002  3.6055100e-021
  5.5518463e+002  3.6177800e-021
  5.5542027e+002  3.6305200e-021
  5.5565591e+002  3.6466500e-021
  5.5589165e+002  3.6614500e-021
  5.5612738e+002  3.6792200e-021
  5.5636312e+002  3.6894500e-021
  5.5659886e+002  3.7090300e-021
  5.5683469e+002  3.7296900e-021
  5.5707043e+002  3.7440200e-021
  5.5730627e+002  3.7662000e-021
  5.5754211e+002  3.7827700e-021
  5.5777804e+002  3.8043700e-021
  5.5801388e+002  3.8270600e-021
  5.5824982e+002  3.8436300e-021
  5.5848575e+002  3.8658100e-021
  5.5872169e+002  3.8932800e-021
  5.5895773e+002  3.9125900e-021
  5.5919366e+002  3.9389700e-021
  5.5942970e+002  3.9605300e-021
  5.5966574e+002  3.9815600e-021
  5.5990188e+002  4.0042200e-021
  5.6013791e+002  4.0331600e-021
  5.6037405e+002  4.0577100e-021
  5.6061019e+002  4.0795800e-021
  5.6084632e+002  4.1049700e-021
  5.6108256e+002  4.1307500e-021
  5.6131880e+002  4.1548400e-021
  5.6155503e+002  4.1753800e-021
  5.6179127e+002  4.1996200e-021
  5.6202751e+002  4.2173100e-021
  5.6226384e+002  4.2416900e-021
  5.6250018e+002  4.2625500e-021
  5.6273652e+002  4.2841800e-021
  5.6297286e+002  4.3125100e-021
  5.6320929e+002  4.3292300e-021
  5.6344573e+002  4.3414700e-021
  5.6368217e+002  4.3561800e-021
  5.6391870e+002  4.3798200e-021
  5.6415514e+002  4.3893400e-021
  5.6439168e+002  4.4144200e-021
  5.6462821e+002  4.4305000e-021
  5.6486475e+002  4.4466300e-021
  5.6510139e+002  4.4591700e-021
  5.6533802e+002  4.4731800e-021
  5.6557466e+002  4.4942300e-021
  5.6581130e+002  4.5055200e-021
  5.6604803e+002  4.5192100e-021
  5.6628477e+002  4.5373500e-021
  5.6652151e+002  4.5480100e-021
  5.6675824e+002  4.5649600e-021
  5.6699508e+002  4.5814500e-021
  5.6723192e+002  4.5928300e-021
  5.6746875e+002  4.6007400e-021
  5.6770569e+002  4.6092100e-021
  5.6794253e+002  4.6268300e-021
  5.6817946e+002  4.6394900e-021
  5.6841650e+002  4.6543700e-021
  5.6865344e+002  4.6708600e-021
  5.6889047e+002  4.6775200e-021
  5.6912751e+002  4.6988100e-021
  5.6936455e+002  4.7111100e-021
  5.6960168e+002  4.7218900e-021
  5.6983872e+002  4.7336100e-021
  5.7007596e+002  4.7469900e-021
  5.7031309e+002  4.7604700e-021
  5.7055033e+002  4.7743300e-021
  5.7078747e+002  4.7877400e-021
  5.7102480e+002  4.8056300e-021
  5.7126204e+002  4.8080900e-021
  5.7149938e+002  4.8152100e-021
  5.7173671e+002  4.8296500e-021
  5.7197405e+002  4.8433500e-021
  5.7221149e+002  4.8493800e-021
  5.7244892e+002  4.8576200e-021
  5.7268636e+002  4.8682100e-021
  5.7292380e+002  4.8726200e-021
  5.7316133e+002  4.8760500e-021
  5.7339887e+002  4.8874300e-021
  5.7363641e+002  4.8885100e-021
  5.7387404e+002  4.8868500e-021
  5.7411168e+002  4.8963500e-021
  5.7434932e+002  4.8928300e-021
  5.7458695e+002  4.8892600e-021
  5.7482469e+002  4.8916500e-021
  5.7506242e+002  4.8864900e-021
  5.7530016e+002  4.8799500e-021
  5.7553800e+002  4.8786500e-021
  5.7577583e+002  4.8771300e-021
  5.7601367e+002  4.8661100e-021
  5.7625151e+002  4.8601800e-021
  5.7648944e+002  4.8492600e-021
  5.7672738e+002  4.8484800e-021
  5.7696532e+002  4.8353900e-021
  5.7720335e+002  4.8259900e-021
  5.7744139e+002  4.8210700e-021
  5.7767943e+002  4.8129400e-021
  5.7791756e+002  4.7998900e-021
  5.7815570e+002  4.7986900e-021
  5.7839383e+002  4.7811800e-021
  5.7863197e+002  4.7700700e-021
  5.7887021e+002  4.7518400e-021
  5.7910844e+002  4.7475400e-021
  5.7934668e+002  4.7377100e-021
  5.7958502e+002  4.7243200e-021
  5.7982335e+002  4.7103100e-021
  5.8006169e+002  4.7036800e-021
  5.8030012e+002  4.6879100e-021
  5.8053856e+002  4.6840800e-021
  5.8077700e+002  4.6727000e-021
  5.8101553e+002  4.6551700e-021
  5.8125397e+002  4.6441000e-021
  5.8149261e+002  4.6365700e-021
  5.8173114e+002  4.6291700e-021
  5.8196978e+002  4.6210200e-021
  5.8220841e+002  4.6074900e-021
  5.8244705e+002  4.5971000e-021
  5.8268579e+002  4.5890500e-021
  5.8292452e+002  4.5845400e-021
  5.8316326e+002  4.5753000e-021
  5.8340209e+002  4.5663100e-021
  5.8364093e+002  4.5614900e-021
  5.8387977e+002  4.5563000e-021
  5.8411870e+002  4.5513800e-021
  5.8435764e+002  4.5468700e-021
  5.8459658e+002  4.5393000e-021
  5.8483561e+002  4.5355900e-021
  5.8507465e+002  4.5273900e-021
  5.8531368e+002  4.5227400e-021
  5.8555282e+002  4.5207800e-021
  5.8579196e+002  4.5160600e-021
  5.8603109e+002  4.5115000e-021
  5.8627023e+002  4.5106800e-021
  5.8650946e+002  4.5051300e-021
  5.8674880e+002  4.5125800e-021
  5.8698804e+002  4.5061500e-021
  5.8722737e+002  4.5054900e-021
  5.8746671e+002  4.5007000e-021
  5.8770614e+002  4.5005300e-021
  5.8794558e+002  4.4967900e-021
  5.8818502e+002  4.4988100e-021
  5.8842445e+002  4.5023400e-021
  5.8866399e+002  4.5035900e-021
  5.8890362e+002  4.5021400e-021
  5.8914316e+002  4.5107500e-021
  5.8938279e+002  4.5145400e-021
  5.8962243e+002  4.5185400e-021
  5.8986217e+002  4.5187100e-021
  5.9010190e+002  4.5208500e-021
  5.9034164e+002  4.5339000e-021
  5.9058147e+002  4.5395200e-021
  5.9082131e+002  4.5507600e-021
  5.9106115e+002  4.5531900e-021
  5.9130098e+002  4.5615600e-021
  5.9154092e+002  4.5761700e-021
  5.9178095e+002  4.5895500e-021
  5.9202089e+002  4.6037100e-021
  5.9226092e+002  4.6096400e-021
  5.9250106e+002  4.6247400e-021
  5.9274110e+002  4.6391800e-021
  5.9298123e+002  4.6552400e-021
  5.9322147e+002  4.6721900e-021
  5.9346160e+002  4.6907100e-021
  5.9370194e+002  4.7097100e-021
  5.9394217e+002  4.7325700e-021
  5.9418251e+002  4.7508700e-021
  5.9442285e+002  4.7645900e-021
  5.9466318e+002  4.7913300e-021
  5.9490362e+002  4.8116900e-021
  5.9514405e+002  4.8254100e-021
  5.9538459e+002  4.8520000e-021
  5.9562512e+002  4.8726500e-021
  5.9586566e+002  4.8888000e-021
  5.9610630e+002  4.9141200e-021
  5.9634683e+002  4.9383500e-021
  5.9658757e+002  4.9602200e-021
  5.9682820e+002  4.9816100e-021
  5.9706894e+002  5.0052700e-021
  5.9730977e+002  5.0270900e-021
  5.9755061e+002  5.0501000e-021
  5.9779144e+002  5.0754100e-021
  5.9803228e+002  5.0967300e-021
  5.9827322e+002  5.1084500e-021
  5.9851415e+002  5.1344900e-021
  5.9866361e+002  5.1544600e-021
  5.9888765e+002  5.1693400e-021
  5.9911159e+002  5.1868700e-021
  5.9933553e+002  5.2100900e-021
  5.9955937e+002  5.2239100e-021
  5.9978311e+002  5.2413600e-021
  6.0000695e+002  5.2459700e-021
  6.0023059e+002  5.2569200e-021
  6.0045423e+002  5.2658900e-021
  6.0067787e+002  5.2780200e-021
  6.0090141e+002  5.2898800e-021
  6.0112485e+002  5.2870300e-021
  6.0134829e+002  5.2954700e-021
  6.0157173e+002  5.3044700e-021
  6.0179507e+002  5.3023700e-021
  6.0201831e+002  5.3006100e-021
  6.0224155e+002  5.3114600e-021
  6.0246479e+002  5.3081600e-021
  6.0268793e+002  5.3116800e-021
  6.0291097e+002  5.3067100e-021
  6.0313401e+002  5.3003700e-021
  6.0335695e+002  5.2946500e-021
  6.0357989e+002  5.2973500e-021
  6.0380283e+002  5.2866000e-021
  6.0402567e+002  5.2791000e-021
  6.0424841e+002  5.2702000e-021
  6.0447116e+002  5.2569400e-021
  6.0469380e+002  5.2517300e-021
  6.0491644e+002  5.2404000e-021
  6.0513908e+002  5.2312600e-021
  6.0536152e+002  5.2111700e-021
  6.0558406e+002  5.1949200e-021
  6.0580650e+002  5.1870800e-021
  6.0602884e+002  5.1739400e-021
  6.0625118e+002  5.1649500e-021
  6.0647342e+002  5.1403500e-021
  6.0669566e+002  5.1318200e-021
  6.0691790e+002  5.1141400e-021
  6.0713994e+002  5.0955700e-021
  6.0736208e+002  5.0831100e-021
  6.0758412e+002  5.0546000e-021
  6.0780606e+002  5.0383800e-021
  6.0802800e+002  5.0232800e-021
  6.0824984e+002  5.0070800e-021
  6.0847168e+002  4.9834700e-021
  6.0869352e+002  4.9696300e-021
  6.0891526e+002  4.9496600e-021
  6.0913691e+002  4.9259800e-021
  6.0935855e+002  4.9112300e-021
  6.0958019e+002  4.8893600e-021
  6.0980173e+002  4.8660400e-021
  6.1002317e+002  4.8477100e-021
  6.1024461e+002  4.8242000e-021
  6.1046605e+002  4.8109600e-021
  6.1068739e+002  4.7946900e-021
  6.1090863e+002  4.7731500e-021
  6.1112987e+002  4.7522700e-021
  6.1135111e+002  4.7332000e-021
  6.1157225e+002  4.7128500e-021
  6.1179339e+002  4.6942100e-021
  6.1201443e+002  4.6721900e-021
  6.1223547e+002  4.6573400e-021
  6.1245642e+002  4.6422200e-021
  6.1267736e+002  4.6237000e-021
  6.1289820e+002  4.6024500e-021
  6.1311904e+002  4.5846600e-021
  6.1333978e+002  4.5639500e-021
  6.1356052e+002  4.5514100e-021
  6.1378116e+002  4.5342400e-021
  6.1400180e+002  4.5163500e-021
  6.1422244e+002  4.4891000e-021
  6.1444288e+002  4.4648600e-021
  6.1466342e+002  4.4500300e-021
  6.1488386e+002  4.4434000e-021
  6.1510431e+002  4.4272500e-021
  6.1532465e+002  4.4135000e-021
  6.1554489e+002  4.3955600e-021
  6.1576513e+002  4.3726800e-021
  6.1598537e+002  4.3602600e-021
  6.1620551e+002  4.3511400e-021
  6.1642565e+002  4.3368900e-021
  6.1664569e+002  4.3204700e-021
  6.1686573e+002  4.3052300e-021
  6.1708577e+002  4.2913200e-021
  6.1730572e+002  4.2762000e-021
  6.1752556e+002  4.2602800e-021
  6.1774540e+002  4.2504200e-021
  6.1796514e+002  4.2388200e-021
  6.1818498e+002  4.2163300e-021
  6.1840462e+002  4.2034700e-021
  6.1862426e+002  4.1959000e-021
  6.1884390e+002  4.1840400e-021
  6.1906344e+002  4.1770200e-021
  6.1928299e+002  4.1565700e-021
  6.1950253e+002  4.1465200e-021
  6.1972187e+002  4.1412600e-021
  6.1994131e+002  4.1297300e-021
  6.2016065e+002  4.1224000e-021
  6.2037989e+002  4.1059100e-021
  6.2059923e+002  4.0923400e-021
  6.2081837e+002  4.0849600e-021
  6.2103752e+002  4.0770200e-021
  6.2125666e+002  4.0578500e-021
  6.2147570e+002  4.0480600e-021
  6.2169474e+002  4.0358100e-021
  6.2191378e+002  4.0336700e-021
  6.2213272e+002  4.0193400e-021
  6.2235156e+002  4.0074100e-021
  6.2257040e+002  3.9940000e-021
  6.2278925e+002  3.9907500e-021
  6.2300799e+002  3.9799900e-021
  6.2322673e+002  3.9699400e-021
  6.2344537e+002  3.9658800e-021
  6.2366401e+002  3.9465700e-021
  6.2388265e+002  3.9366800e-021
  6.2410119e+002  3.9317900e-021
  6.2431963e+002  3.9189800e-021
  6.2453818e+002  3.9054300e-021
  6.2475652e+002  3.8965100e-021
  6.2497496e+002  3.8834200e-021
  6.2519330e+002  3.8773600e-021
  6.2541154e+002  3.8670000e-021
  6.2562978e+002  3.8581000e-021
  6.2584802e+002  3.8439700e-021
  6.2606617e+002  3.8354500e-021
  6.2628421e+002  3.8185000e-021
  6.2650235e+002  3.8055500e-021
  6.2672039e+002  3.7976000e-021
  6.2693833e+002  3.7908700e-021
  6.2715627e+002  3.7860900e-021
  6.2737422e+002  3.7707600e-021
  6.2759206e+002  3.7647100e-021
  6.2780990e+002  3.7554200e-021
  6.2802764e+002  3.7378400e-021
  6.2824538e+002  3.7263200e-021
  6.2846302e+002  3.7145300e-021
  6.2868067e+002  3.7020600e-021
  6.2889831e+002  3.6897400e-021
  6.2911585e+002  3.6842600e-021
  6.2933339e+002  3.6696800e-021
  6.2955083e+002  3.6524800e-021
  6.2976827e+002  3.6404700e-021
  6.2998571e+002  3.6294100e-021
  6.3020306e+002  3.6163400e-021
  6.3042040e+002  3.6118800e-021
  6.3063764e+002  3.5960100e-021
  6.3085488e+002  3.5786000e-021
  6.3107202e+002  3.5763800e-021
  6.3128927e+002  3.5678400e-021
  6.3150631e+002  3.5533500e-021
  6.3172335e+002  3.5438500e-021
  6.3194039e+002  3.5297900e-021
  6.3215743e+002  3.5212100e-021
  6.3237437e+002  3.5080900e-021
  6.3259122e+002  3.4969700e-021
  6.3280816e+002  3.4838300e-021
  6.3302500e+002  3.4764100e-021
  6.3324174e+002  3.4615300e-021
  6.3345848e+002  3.4534700e-021
  6.3367522e+002  3.4398500e-021
  6.3389187e+002  3.4264400e-021
  6.3410851e+002  3.4170600e-021
  6.3432505e+002  3.4046700e-021
  6.3454159e+002  3.4018200e-021
  6.3475813e+002  3.3870700e-021
  6.3497458e+002  3.3699000e-021
  6.3519102e+002  3.3573100e-021
  6.3540736e+002  3.3473000e-021
  6.3562370e+002  3.3392000e-021
  6.3584004e+002  3.3323500e-021
  6.3605629e+002  3.3149400e-021
  6.3627253e+002  3.3018000e-021
  6.3648877e+002  3.2808900e-021
  6.3670491e+002  3.2648400e-021
  6.3692095e+002  3.2562700e-021
  6.3713710e+002  3.2386000e-021
  6.3735314e+002  3.2302300e-021
  6.3756908e+002  3.2205900e-021
  6.3778502e+002  3.2056100e-021
  6.3800096e+002  3.1971200e-021
  6.3821691e+002  3.1844900e-021
  6.3843275e+002  3.1756200e-021
  6.3864849e+002  3.1549000e-021
  6.3886423e+002  3.1482200e-021
  6.3907997e+002  3.1324000e-021
  6.3929572e+002  3.1173100e-021
  6.3951136e+002  3.0973000e-021
  6.3972690e+002  3.0865400e-021
  6.3994254e+002  3.0729900e-021
  6.4015808e+002  3.0618200e-021
  6.4037353e+002  3.0492400e-021
  6.4058907e+002  3.0308100e-021
  6.4080441e+002  3.0163200e-021
  6.4101985e+002  3.0084100e-021
  6.4123520e+002  3.0003400e-021
  6.4145054e+002  2.9885000e-021
  6.4166578e+002  2.9768700e-021
  6.4188102e+002  2.9593700e-021
  6.4209626e+002  2.9498900e-021
  6.4231141e+002  2.9423400e-021
  6.4252655e+002  2.9281900e-021
  6.4274159e+002  2.9228600e-021
  6.4295663e+002  2.9098600e-021
  6.4317168e+002  2.8968200e-021
  6.4338662e+002  2.8786100e-021
  6.4360156e+002  2.8681000e-021
  6.4381650e+002  2.8596300e-021
  6.4403134e+002  2.8458200e-021
  6.4424619e+002  2.8371800e-021
  6.4446103e+002  2.8238000e-021
  6.4467577e+002  2.8192200e-021
  6.4489051e+002  2.8101300e-021
  6.4510516e+002  2.7991300e-021
  6.4531990e+002  2.7871200e-021
  6.4553444e+002  2.7802500e-021
  6.4574908e+002  2.7644600e-021
  6.4596363e+002  2.7499900e-021
  6.4617817e+002  2.7434100e-021
  6.4639261e+002  2.7359300e-021
  6.4660705e+002  2.7219900e-021
  6.4682150e+002  2.7174800e-021
  6.4703584e+002  2.7089700e-021
  6.4725018e+002  2.6995700e-021
  6.4746442e+002  2.6936600e-021
  6.4767877e+002  2.6783200e-021
  6.4789301e+002  2.6630600e-021
  6.4810715e+002  2.6560000e-021
  6.4832129e+002  2.6489100e-021
  6.4853544e+002  2.6446900e-021
  6.4874958e+002  2.6349700e-021
  6.4896362e+002  2.6235400e-021
  6.4917766e+002  2.6110700e-021
  6.4939161e+002  2.5979500e-021
  6.4960555e+002  2.5863600e-021
  6.4981949e+002  2.5827200e-021
  6.5003343e+002  2.5771700e-021
  6.5024728e+002  2.5717700e-021
  6.5046102e+002  2.5595700e-021
  6.5067486e+002  2.5450000e-021
  6.5088860e+002  2.5443500e-021
  6.5110235e+002  2.5347800e-021
  6.5131599e+002  2.5271800e-021
  6.5152963e+002  2.5196300e-021
  6.5174327e+002  2.5007500e-021
  6.5195682e+002  2.4907500e-021
  6.5217046e+002  2.4845500e-021
  6.5238390e+002  2.4822800e-021
  6.5259744e+002  2.4700600e-021
  6.5281089e+002  2.4529100e-021
  6.5302433e+002  2.4555400e-021
  6.5323767e+002  2.4446900e-021
  6.5345102e+002  2.4376000e-021
  6.5366436e+002  2.4277600e-021
  6.5387760e+002  2.4168900e-021
  6.5409094e+002  2.4119900e-021
  6.5430409e+002  2.3986300e-021
  6.5451733e+002  2.3888300e-021
  6.5473047e+002  2.3731500e-021
  6.5494361e+002  2.3696700e-021
  6.5515666e+002  2.3559700e-021
  6.5536980e+002  2.3551500e-021
  6.5558284e+002  2.3440500e-021
  6.5579579e+002  2.3376200e-021
  6.5600873e+002  2.3257900e-021
  6.5622167e+002  2.3155600e-021
  6.5643461e+002  2.3121100e-021
  6.5664746e+002  2.3008000e-021
  6.5686030e+002  2.2918400e-021
  6.5707314e+002  2.2858100e-021
  6.5728588e+002  2.2696400e-021
  6.5749863e+002  2.2586400e-021
  6.5771137e+002  2.2541500e-021
  6.5792411e+002  2.2500300e-021
  6.5813676e+002  2.2416200e-021
  6.5834930e+002  2.2269700e-021
  6.5856194e+002  2.2188900e-021
  6.5877448e+002  2.2121500e-021
  6.5898703e+002  2.2066200e-021
  6.5919957e+002  2.2052100e-021
  6.5941201e+002  2.1945000e-021
  6.5962446e+002  2.1807800e-021
  6.5983690e+002  2.1719400e-021
  6.6004924e+002  2.1661400e-021
  6.6026159e+002  2.1535300e-021
  6.6047393e+002  2.1464800e-021
  6.6068617e+002  2.1448600e-021
  6.6089841e+002  2.1346700e-021
  6.6111066e+002  2.1280000e-021
  6.6132290e+002  2.1100000e-021
  6.6153504e+002  2.1108900e-021
  6.6174719e+002  2.1061100e-021
  6.6195933e+002  2.0908600e-021
  6.6217137e+002  2.0974100e-021
  6.6238341e+002  2.0910500e-021
  6.6259546e+002  2.0770100e-021
  6.6280750e+002  2.0636400e-021
  6.6301944e+002  2.0593100e-021
  6.6323139e+002  2.0519700e-021
  6.6344333e+002  2.0379900e-021
  6.6365517e+002  2.0317800e-021
  6.6386702e+002  2.0237700e-021
  6.6407886e+002  2.0194400e-021
  6.6429060e+002  2.0087400e-021
  6.6450235e+002  1.9928900e-021
  6.6471409e+002  1.9880600e-021
  6.6492583e+002  1.9838500e-021
  6.6513747e+002  1.9726800e-021
  6.6534912e+002  1.9541900e-021
  6.6556076e+002  1.9467600e-021
  6.6577240e+002  1.9462100e-021
  6.6598395e+002  1.9391000e-021
  6.6619549e+002  1.9196700e-021
  6.6640703e+002  1.9184900e-021
  6.6661848e+002  1.9090300e-021
  6.6682992e+002  1.8933900e-021
  6.6704136e+002  1.8877700e-021
  6.6725281e+002  1.8720500e-021
  6.6746415e+002  1.8607400e-021
  6.6767549e+002  1.8563300e-021
  6.6788684e+002  1.8491300e-021
  6.6809808e+002  1.8483300e-021
  6.6830942e+002  1.8424900e-021
  6.6852067e+002  1.8297800e-021
  6.6873181e+002  1.8176900e-021
  6.6894305e+002  1.8055100e-021
  6.6915419e+002  1.7994400e-021
  6.6936534e+002  1.7900000e-021
  6.6957638e+002  1.7780500e-021
  6.6978752e+002  1.7748500e-021
  6.6999857e+002  1.7672400e-021
  6.7020961e+002  1.7529900e-021
  6.7042055e+002  1.7413900e-021
  6.7063160e+002  1.7375800e-021
  6.7084254e+002  1.7342100e-021
  6.7105338e+002  1.7285800e-021
  6.7126433e+002  1.7234600e-021
  6.7147517e+002  1.7066600e-021
  6.7168601e+002  1.6982900e-021
  6.7189686e+002  1.6901000e-021
  6.7210770e+002  1.6753200e-021
  6.7231844e+002  1.6648700e-021
  6.7252919e+002  1.6621000e-021
  6.7273993e+002  1.6468800e-021
  6.7295057e+002  1.6485000e-021
  6.7316122e+002  1.6441500e-021
  6.7337186e+002  1.6332100e-021
  6.7358250e+002  1.6288800e-021
  6.7379315e+002  1.6221900e-021
  6.7400369e+002  1.6104600e-021
  6.7421423e+002  1.6065100e-021
  6.7442478e+002  1.5953400e-021
  6.7463522e+002  1.5926600e-021
  6.7484566e+002  1.5789000e-021
  6.7505611e+002  1.5705500e-021
  6.7526655e+002  1.5756900e-021
  6.7547699e+002  1.5676600e-021
  6.7568734e+002  1.5521600e-021
  6.7589768e+002  1.5427700e-021
  6.7610802e+002  1.5361600e-021
  6.7631827e+002  1.5295300e-021
  6.7652861e+002  1.5251500e-021
  6.7673886e+002  1.5102900e-021
  6.7694910e+002  1.4975400e-021
  6.7715924e+002  1.5024700e-021
  6.7736949e+002  1.4990100e-021
  6.7757963e+002  1.4912500e-021
  6.7778977e+002  1.4873100e-021
  6.7799992e+002  1.4777600e-021
  6.7820996e+002  1.4710600e-021
  6.7842000e+002  1.4564300e-021
  6.7863005e+002  1.4555800e-021
  6.7884009e+002  1.4502800e-021
  6.7905013e+002  1.4415000e-021
  6.7926008e+002  1.4330800e-021
  6.7947002e+002  1.4312400e-021
  6.7967996e+002  1.4213200e-021
  6.7988991e+002  1.4188500e-021
  6.8009975e+002  1.4201800e-021
  6.8030959e+002  1.4108400e-021
  6.8051944e+002  1.4051700e-021
  6.8072928e+002  1.4044800e-021
  6.8093913e+002  1.4002500e-021
  6.8114887e+002  1.3950400e-021
  6.8135861e+002  1.3935200e-021
  6.8156836e+002  1.3933600e-021
  6.8177810e+002  1.3855900e-021
  6.8198774e+002  1.3752500e-021
  6.8219749e+002  1.3709300e-021
  6.8240713e+002  1.3675500e-021
  6.8261667e+002  1.3636000e-021
  6.8282632e+002  1.3541700e-021
  6.8303586e+002  1.3507700e-021
  6.8324550e+002  1.3445200e-021
  6.8345505e+002  1.3411400e-021
  6.8366449e+002  1.3353600e-021
  6.8387404e+002  1.3392300e-021
  6.8408348e+002  1.3353600e-021
  6.8429302e+002  1.3303000e-021
  6.8450237e+002  1.3209400e-021
  6.8471181e+002  1.3210800e-021
  6.8492125e+002  1.3263000e-021
  6.8513060e+002  1.3158500e-021
  6.8533994e+002  1.3081500e-021
  6.8554928e+002  1.2990800e-021
  6.8575863e+002  1.2940900e-021
  6.8596787e+002  1.2902000e-021
  6.8617722e+002  1.2773400e-021
  6.8638646e+002  1.2762900e-021
  6.8659570e+002  1.2740000e-021
  6.8680495e+002  1.2696400e-021
  6.8701409e+002  1.2643400e-021
  6.8722323e+002  1.2508400e-021
  6.8743248e+002  1.2426700e-021
  6.8764162e+002  1.2414200e-021
  6.8785067e+002  1.2332600e-021
  6.8805981e+002  1.2164000e-021
  6.8826885e+002  1.2187300e-021
  6.8847800e+002  1.2103200e-021
  6.8868704e+002  1.2056700e-021
  6.8889598e+002  1.1996500e-021
  6.8910503e+002  1.1911400e-021
  6.8931407e+002  1.1854500e-021
  6.8952302e+002  1.1749900e-021
  6.8973196e+002  1.1708200e-021
  6.8994090e+002  1.1646100e-021
  6.9014985e+002  1.1624500e-021
  6.9035869e+002  1.1597400e-021
  6.9056753e+002  1.1460600e-021
  6.9077648e+002  1.1409500e-021
  6.9098532e+002  1.1376100e-021
  6.9119407e+002  1.1213100e-021
  6.9140291e+002  1.1146500e-021
  6.9161175e+002  1.1128400e-021
  6.9182050e+002  1.1084200e-021
  6.9202924e+002  1.1111800e-021
  6.9223798e+002  1.0995800e-021
  6.9244673e+002  1.0963800e-021
  6.9265537e+002  1.0915000e-021
  6.9286412e+002  1.0800900e-021
  6.9307276e+002  1.0725300e-021
  6.9328140e+002  1.0680300e-021
  6.9349005e+002  1.0639100e-021
  6.9369869e+002  1.0534900e-021
  6.9390724e+002  1.0568300e-021
  6.9411588e+002  1.0513400e-021
  6.9432442e+002  1.0368700e-021
  6.9453297e+002  1.0363300e-021
  6.9474151e+002  1.0315200e-021
  6.9495005e+002  1.0261900e-021
  6.9515850e+002  1.0246900e-021
  6.9536704e+002  1.0125400e-021
  6.9557549e+002  9.9927200e-022
  6.9578393e+002  9.9985800e-022
  6.9599237e+002  9.9651100e-022
  6.9620082e+002  9.9628900e-022
  6.9640926e+002  9.8734300e-022
  6.9661761e+002  9.7421800e-022
  6.9682595e+002  9.6835400e-022
  6.9703439e+002  9.5950200e-022
  6.9724274e+002  9.5124800e-022
  6.9745108e+002  9.4634500e-022
  6.9765933e+002  9.4121900e-022
  6.9786767e+002  9.3639600e-022
  6.9807591e+002  9.3113200e-022
  6.9828426e+002  9.2633600e-022
  6.9849250e+002  9.2123100e-022
  6.9870075e+002  9.1666600e-022
  6.9890889e+002  9.1187000e-022
  6.9911713e+002  9.0740700e-022
  6.9932538e+002  9.0271000e-022
  6.9953352e+002  8.9838400e-022
  6.9974167e+002  8.9446300e-022
  6.9994981e+002  8.9051800e-022
  7.0015795e+002  8.8616500e-022
  7.0036610e+002  8.8233900e-022
  7.0057424e+002  8.7805800e-022
  7.0078228e+002  8.7431600e-022
  7.0099043e+002  8.7050400e-022
  7.0119847e+002  8.6665000e-022
  7.0140652e+002  8.6239400e-022
  7.0161456e+002  8.5909800e-022
  7.0182260e+002  8.5534400e-022
  7.0203065e+002  8.5191700e-022
  7.0223869e+002  8.4853900e-022
  7.0244664e+002  8.4515600e-022
  7.0265458e+002  8.4190300e-022
  7.0286262e+002  8.3863500e-022
  7.0307057e+002  8.3518500e-022
  7.0327851e+002  8.3262400e-022
  7.0348636e+002  8.2899300e-022
  7.0369430e+002  8.2600700e-022
  7.0390224e+002  8.2300500e-022
  7.0411009e+002  8.2030000e-022
  7.0431793e+002  8.1701500e-022
  7.0452588e+002  8.1439400e-022
  7.0473372e+002  8.1160700e-022
  7.0494156e+002  8.0889600e-022
  7.0514941e+002  8.0618600e-022
  7.0535715e+002  8.0376000e-022
  7.0556500e+002  8.0089600e-022
  7.0577274e+002  7.9816600e-022
  7.0598059e+002  7.9546300e-022
  7.0618833e+002  7.9304700e-022
  7.0639607e+002  7.9012200e-022
  7.0660382e+002  7.8767900e-022
  7.0681156e+002  7.8551100e-022
  7.0701931e+002  7.8317200e-022
  7.0722705e+002  7.8061400e-022
  7.0743469e+002  7.7827200e-022
  7.0764244e+002  7.7588300e-022
  7.0785008e+002  7.7353900e-022
  7.0805773e+002  7.7073700e-022
  7.0826537e+002  7.6863900e-022
  7.0847301e+002  7.6638200e-022
  7.0868066e+002  7.6415200e-022
  7.0888830e+002  7.6150100e-022
  7.0909595e+002  7.5956000e-022
  7.0930349e+002  7.5724800e-022
  7.0951113e+002  7.5520100e-022
  7.0971868e+002  7.5297000e-022
  7.0992632e+002  7.5071600e-022
  7.1013387e+002  7.4843700e-022
  7.1034141e+002  7.4652000e-022
  7.1054895e+002  7.4436900e-022
  7.1075650e+002  7.4242500e-022
  7.1096404e+002  7.4019500e-022
  7.1117149e+002  7.3851200e-022
  7.1137903e+002  7.3671800e-022
  7.1158658e+002  7.3504400e-022
  7.1179402e+002  7.3301900e-022
  7.1200146e+002  7.3162500e-022
  7.1220901e+002  7.3015400e-022
  7.1241645e+002  7.2882300e-022
  7.1262390e+002  7.2724100e-022
  7.1283134e+002  7.2660700e-022
  7.1303878e+002  7.2593700e-022
  7.1324623e+002  7.2500100e-022
  7.1345357e+002  7.2393300e-022
  7.1366102e+002  7.2348700e-022
  7.1386846e+002  7.2260900e-022
  7.1407580e+002  7.2205400e-022
  7.1428315e+002  7.2140800e-022
  7.1449059e+002  7.2061700e-022
  7.1469794e+002  7.1950600e-022
  7.1490528e+002  7.1868100e-022
  7.1511263e+002  7.1782200e-022
  7.1531997e+002  7.1673300e-022
  7.1552731e+002  7.1497500e-022
  7.1573466e+002  7.1355400e-022
  7.1594200e+002  7.1175300e-022
  7.1614935e+002  7.0977100e-022
  7.1635659e+002  7.0721700e-022
  7.1656393e+002  7.0463000e-022
  7.1677118e+002  7.0156500e-022
  7.1697852e+002  6.9882600e-022
  7.1718577e+002  6.9556300e-022
  7.1739301e+002  6.9253700e-022
  7.1760026e+002  6.8899000e-022
  7.1780760e+002  6.8541400e-022
  7.1801484e+002  6.8146400e-022
  7.1822209e+002  6.7730500e-022
  7.1842933e+002  6.7301700e-022
  7.1863658e+002  6.6905300e-022
  7.1884372e+002  6.6479900e-022
  7.1905096e+002  6.6081800e-022
  7.1925821e+002  6.5615500e-022
  7.1946535e+002  6.5177600e-022
  7.1967260e+002  6.4697200e-022
  7.1987984e+002  6.4292600e-022
  7.2008699e+002  6.3816400e-022
  7.2029413e+002  6.3404000e-022
  7.2050137e+002  6.2942000e-022
  7.2070852e+002  6.2515200e-022
  7.2091566e+002  6.2093500e-022
  7.2112291e+002  6.1698500e-022
  7.2133005e+002  6.1245900e-022
  7.2153719e+002  6.0857400e-022
  7.2174434e+002  6.0448900e-022
  7.2195148e+002  6.0122400e-022
  7.2215863e+002  5.9726700e-022
  7.2236577e+002  5.9396400e-022
  7.2257282e+002  5.9056400e-022
  7.2277996e+002  5.8765300e-022
  7.2298710e+002  5.8442000e-022
  7.2319425e+002  5.8150200e-022
  7.2340129e+002  5.7833400e-022
  7.2360844e+002  5.7529300e-022
  7.2381558e+002  5.7281600e-022
  7.2402262e+002  5.7030100e-022
  7.2422977e+002  5.6723400e-022
  7.2443681e+002  5.6479900e-022
  7.2464396e+002  5.6262900e-022
  7.2485100e+002  5.6020500e-022
  7.2505805e+002  5.5737700e-022
  7.2526519e+002  5.5469300e-022
  7.2547223e+002  5.5226700e-022
  7.2567928e+002  5.5002700e-022
  7.2588632e+002  5.4687500e-022
  7.2609347e+002  5.4424200e-022
  7.2630051e+002  5.4123500e-022
  7.2650755e+002  5.3866000e-022
  7.2671460e+002  5.3544600e-022
  7.2692164e+002  5.3272100e-022
  7.2712869e+002  5.2942900e-022
  7.2733573e+002  5.2661000e-022
  7.2754278e+002  5.2353100e-022
  7.2774982e+002  5.2063700e-022
  7.2795686e+002  5.1712900e-022
  7.2816391e+002  5.1387100e-022
  7.2837095e+002  5.1059200e-022
  7.2857800e+002  5.0793700e-022
  7.2878504e+002  5.0490800e-022
  7.2899199e+002  5.0214500e-022
  7.2919903e+002  4.9922200e-022
  7.2940607e+002  4.9688800e-022
  7.2961312e+002  4.9412700e-022
  7.2982016e+002  4.9173300e-022
  7.3002711e+002  4.8931400e-022
  7.3023415e+002  4.8710800e-022
  7.3044119e+002  4.8488700e-022
  7.3064824e+002  4.8254300e-022
  7.3085518e+002  4.8001600e-022
  7.3106223e+002  4.7858800e-022
  7.3126927e+002  4.7631700e-022
  7.3147622e+002  4.7418300e-022
  7.3168326e+002  4.7191100e-022
  7.3189030e+002  4.7027200e-022
  7.3209725e+002  4.6825100e-022
  7.3230429e+002  4.6681600e-022
  7.3251134e+002  4.6514800e-022
  7.3271828e+002  4.6389900e-022
  7.3292532e+002  4.6257700e-022
  7.3313237e+002  4.6169900e-022
  7.3333931e+002  4.6031800e-022
  7.3354636e+002  4.5938700e-022
  7.3375340e+002  4.5802500e-022
  7.3396035e+002  4.5717800e-022
  7.3416739e+002  4.5628800e-022
  7.3437443e+002  4.5590500e-022
  7.3458138e+002  4.5541800e-022
  7.3478842e+002  4.5531400e-022
  7.3499547e+002  4.5458400e-022
  7.3520241e+002  4.5421900e-022
  7.3540946e+002  4.5359500e-022
  7.3561650e+002  4.5329100e-022
  7.3582354e+002  4.5280400e-022
  7.3603049e+002  4.5232700e-022
  7.3623753e+002  4.5178600e-022
  7.3644458e+002  4.5159400e-022
  7.3665162e+002  4.5092100e-022
  7.3685856e+002  4.5057100e-022
  7.3706561e+002  4.4970800e-022
  7.3727265e+002  4.4917500e-022
  7.3747970e+002  4.4803900e-022
  7.3768674e+002  4.4763700e-022
  7.3789379e+002  4.4684800e-022
  7.3810073e+002  4.4629100e-022
  7.3830777e+002  4.4563300e-022
  7.3851482e+002  4.4552700e-022
  7.3872186e+002  4.4525400e-022
  7.3892891e+002  4.4428200e-022
  7.3913595e+002  4.4361700e-022
  7.3934299e+002  4.4360700e-022
  7.3955004e+002  4.4330800e-022
  7.3975718e+002  4.4340200e-022
  7.3996423e+002  4.4313900e-022
  7.4017127e+002  4.4320000e-022
  7.4037832e+002  4.4263500e-022
  7.4058536e+002  4.4252400e-022
  7.4079240e+002  4.4262800e-022
  7.4099955e+002  4.4329400e-022
  7.4120659e+002  4.4388200e-022
  7.4141364e+002  4.4451900e-022
  7.4162078e+002  4.4491900e-022
  7.4182782e+002  4.4543500e-022
  7.4203497e+002  4.4613900e-022
  7.4224201e+002  4.4703600e-022
  7.4244916e+002  4.4775000e-022
  7.4265620e+002  4.4877200e-022
  7.4286335e+002  4.4966700e-022
  7.4307049e+002  4.5112600e-022
  7.4327753e+002  4.5208500e-022
  7.4348468e+002  4.5364600e-022
  7.4369182e+002  4.5456700e-022
  7.4389897e+002  4.5614900e-022
  7.4410611e+002  4.5712800e-022
  7.4431325e+002  4.5836500e-022
  7.4452040e+002  4.5935800e-022
  7.4472754e+002  4.6103400e-022
  7.4493469e+002  4.6222000e-022
  7.4514183e+002  4.6352500e-022
  7.4534897e+002  4.6456900e-022
  7.4555612e+002  4.6594800e-022
  7.4576336e+002  4.6675800e-022
  7.4597051e+002  4.6764800e-022
  7.4617765e+002  4.6832100e-022
  7.4638490e+002  4.6868800e-022
  7.4659204e+002  4.6853600e-022
  7.4679928e+002  4.6917000e-022
  7.4700653e+002  4.6887800e-022
  7.4721367e+002  4.6892100e-022
  7.4742092e+002  4.6826300e-022
  7.4762816e+002  4.6780000e-022
  7.4783540e+002  4.6670300e-022
  7.4804265e+002  4.6552600e-022
  7.4824989e+002  4.6385000e-022
  7.4845714e+002  4.6255500e-022
  7.4866438e+002  4.6073000e-022
  7.4887162e+002  4.5867300e-022
  7.4907897e+002  4.5560100e-022
  7.4928621e+002  4.5296100e-022
  7.4949346e+002  4.4993200e-022
  7.4970080e+002  4.4713000e-022
  7.4990804e+002  4.4366000e-022
  7.5011539e+002  4.4010800e-022
  7.5032273e+002  4.3599200e-022
  7.5053008e+002  4.3251300e-022
  7.5073742e+002  4.2844200e-022
  7.5094467e+002  4.2463000e-022
  7.5115211e+002  4.2029400e-022
  7.5135945e+002  4.1627900e-022
  7.5156680e+002  4.1151900e-022
  7.5177414e+002  4.0747300e-022
  7.5198149e+002  4.0356200e-022
  7.5218893e+002  3.9931300e-022
  7.5239627e+002  3.9464500e-022
  7.5260372e+002  3.9043700e-022
  7.5281116e+002  3.8596200e-022
  7.5301861e+002  3.8211800e-022
  7.5322595e+002  3.7756100e-022
  7.5343339e+002  3.7388300e-022
  7.5364084e+002  3.6971600e-022
  7.5384838e+002  3.6604200e-022
  7.5405583e+002  3.6219300e-022
  7.5426327e+002  3.5897400e-022
  7.5447081e+002  3.5536700e-022
  7.5467826e+002  3.5236400e-022
  7.5488580e+002  3.4909500e-022
  7.5509325e+002  3.4572600e-022
  7.5530079e+002  3.4248300e-022
  7.5550833e+002  3.3979400e-022
  7.5571588e+002  3.3685700e-022
  7.5592342e+002  3.3414200e-022
  7.5613097e+002  3.3132500e-022
  7.5633861e+002  3.2903200e-022
  7.5654615e+002  3.2635600e-022
  7.5675370e+002  3.2411600e-022
  7.5696134e+002  3.2154300e-022
  7.5716899e+002  3.1954600e-022
  7.5737663e+002  3.1692000e-022
  7.5758427e+002  3.1505600e-022
  7.5779192e+002  3.1249100e-022
  7.5799956e+002  3.1091300e-022
  7.5820721e+002  3.0918000e-022
  7.5841485e+002  3.0738600e-022
  7.5862259e+002  3.0551000e-022
  7.5883024e+002  3.0387000e-022
  7.5903798e+002  3.0182300e-022
  7.5924573e+002  3.0052100e-022
  7.5945347e+002  2.9862300e-022
  7.5966121e+002  2.9724600e-022
  7.5986896e+002  2.9568100e-022
  7.6007670e+002  2.9473600e-022
  7.6028455e+002  2.9327700e-022
  7.6049229e+002  2.9225500e-022
  7.6070013e+002  2.9076200e-022
  7.6090798e+002  2.8989400e-022
  7.6111572e+002  2.8813600e-022
  7.6132356e+002  2.8733800e-022
  7.6153151e+002  2.8624100e-022
  7.6173935e+002  2.8574400e-022
  7.6194720e+002  2.8472400e-022
  7.6215514e+002  2.8381000e-022
  7.6236298e+002  2.8251500e-022
  7.6257093e+002  2.8150500e-022
  7.6277887e+002  2.8003400e-022
  7.6298682e+002  2.7912200e-022
  7.6319476e+002  2.7759800e-022
  7.6340270e+002  2.7666000e-022
  7.6361075e+002  2.7443500e-022
  7.6381869e+002  2.7204000e-022
  7.6402674e+002  2.7169500e-022
  7.6423478e+002  2.7353800e-022
  7.6444282e+002  2.7459600e-022
  7.6465087e+002  2.7470700e-022
  7.6485891e+002  2.7375500e-022
  7.6506705e+002  2.7182600e-022
  7.6527510e+002  2.6979000e-022
  7.6548324e+002  2.6754100e-022
  7.6569139e+002  2.6617800e-022
  7.6589953e+002  2.6623600e-022
  7.6610767e+002  2.6671600e-022
  7.6631582e+002  2.6699300e-022
  7.6652396e+002  2.6713100e-022
  7.6673221e+002  2.6759600e-022
  7.6694045e+002  2.6757700e-022
  7.6714859e+002  2.6757900e-022
  7.6735684e+002  2.6763500e-022
  7.6756518e+002  2.6780100e-022
  7.6777342e+002  2.6742700e-022
  7.6798167e+002  2.6761500e-022
  7.6819001e+002  2.6722700e-022
  7.6839836e+002  2.6728500e-022
  7.6860670e+002  2.6732600e-022
  7.6881504e+002  2.6760300e-022
  7.6902339e+002  2.6737400e-022
  7.6923173e+002  2.6783200e-022
  7.6944017e+002  2.6788800e-022
  7.6964862e+002  2.6851200e-022
  7.6985696e+002  2.6839700e-022
  7.7006541e+002  2.6937300e-022
  7.7027395e+002  2.6959000e-022
  7.7048239e+002  2.7013300e-022
  7.7069094e+002  2.7109700e-022
  7.7089938e+002  2.7203300e-022
  7.7110792e+002  2.7261400e-022
  7.7131647e+002  2.7407100e-022
  7.7152501e+002  2.7506200e-022
  7.7173366e+002  2.7630600e-022
  7.7194220e+002  2.7738600e-022
  7.7215084e+002  2.7897000e-022
  7.7235949e+002  2.8009900e-022
  7.7256813e+002  2.8195300e-022
  7.7277677e+002  2.8339500e-022
  7.7298552e+002  2.8533200e-022
  7.7319416e+002  2.8725600e-022
  7.7340290e+002  2.8937100e-022
  7.7361165e+002  2.9104600e-022
  7.7382039e+002  2.9334200e-022
  7.7402914e+002  2.9514100e-022
  7.7423798e+002  2.9768500e-022
  7.7444672e+002  2.9953700e-022
  7.7465557e+002  3.0255100e-022
  7.7486441e+002  3.0474500e-022
  7.7507335e+002  3.0735200e-022
  7.7528220e+002  3.0927900e-022
  7.7549114e+002  3.1181100e-022
  7.7569998e+002  3.1389600e-022
  7.7590893e+002  3.1671300e-022
  7.7611797e+002  3.1844900e-022
  7.7632692e+002  3.2114200e-022
  7.7653586e+002  3.2326200e-022
  7.7674490e+002  3.2574300e-022
  7.7695395e+002  3.2746700e-022
  7.7716299e+002  3.2922300e-022
  7.7737213e+002  3.3052500e-022
  7.7758118e+002  3.3234100e-022
  7.7779032e+002  3.3353700e-022
  7.7799946e+002  3.3506300e-022
  7.7820861e+002  3.3560100e-022
  7.7841775e+002  3.3652200e-022
  7.7862699e+002  3.3687900e-022
  7.7883614e+002  3.3765000e-022
  7.7904538e+002  3.3725700e-022
  7.7925472e+002  3.3715400e-022
  7.7946397e+002  3.3628100e-022
  7.7967321e+002  3.3634100e-022
  7.7988256e+002  3.3512100e-022
  7.8009190e+002  3.3462900e-022
  7.8030124e+002  3.3336800e-022
  7.8051069e+002  3.3198900e-022
  7.8072003e+002  3.2989100e-022
  7.8092947e+002  3.2836700e-022
  7.8113892e+002  3.2596500e-022
  7.8124009e+002  3.2486100e-022
  7.8153971e+002  3.1995800e-022
  7.8183923e+002  3.1602300e-022
  7.8213865e+002  3.1176200e-022
  7.8243797e+002  3.0736400e-022
  7.8273718e+002  3.0235300e-022
  7.8303640e+002  2.9839600e-022
  7.8333552e+002  2.9399800e-022
  7.8363454e+002  2.8925500e-022
  7.8393346e+002  2.8488300e-022
  7.8423238e+002  2.8061700e-022
  7.8453120e+002  2.7592000e-022
  7.8482992e+002  2.7182100e-022
  7.8512854e+002  2.6719300e-022
  7.8542716e+002  2.6310600e-022
  7.8572558e+002  2.5971600e-022
  7.8602400e+002  2.5612500e-022
  7.8632242e+002  2.5257100e-022
  7.8662064e+002  2.4821900e-022
  7.8691886e+002  2.4494900e-022
  7.8721697e+002  2.4204800e-022
  7.8751509e+002  2.3842600e-022
  7.8781301e+002  2.3543700e-022
  7.8811093e+002  2.3229100e-022
  7.8840875e+002  2.2932500e-022
  7.8870657e+002  2.2649100e-022
  7.8900419e+002  2.2338600e-022
  7.8930181e+002  2.2060900e-022
  7.8959933e+002  2.1850700e-022
  7.8989685e+002  2.1639100e-022
  7.9019427e+002  2.1400400e-022
  7.9049149e+002  2.1195800e-022
  7.9078881e+002  2.0940500e-022
  7.9108593e+002  2.0708100e-022
  7.9138305e+002  2.0499700e-022
  7.9168007e+002  2.0240400e-022
  7.9197699e+002  2.0028800e-022
  7.9227391e+002  1.9820000e-022
  7.9257073e+002  1.9584000e-022
  7.9286745e+002  1.9354100e-022
  7.9316407e+002  1.9104000e-022
  7.9346069e+002  1.8904100e-022
  7.9375721e+002  1.8698700e-022
  7.9405363e+002  1.8527100e-022
  7.9435005e+002  1.8376700e-022
  7.9464637e+002  1.8177100e-022
  7.9494259e+002  1.8000100e-022
  7.9523871e+002  1.7843600e-022
  7.9553483e+002  1.7698500e-022
  7.9583085e+002  1.7587500e-022
  7.9612677e+002  1.7430900e-022
  7.9642269e+002  1.7304000e-022
  7.9671851e+002  1.7161700e-022
  7.9701423e+002  1.7092500e-022
  7.9730995e+002  1.6966400e-022
  7.9760547e+002  1.6909700e-022
  7.9790099e+002  1.6814900e-022
  7.9819651e+002  1.6738300e-022
  7.9849183e+002  1.6665200e-022
  7.9878715e+002  1.6602700e-022
  7.9908247e+002  1.6516800e-022
  7.9937759e+002  1.6427400e-022
  7.9967271e+002  1.6356900e-022
  7.9996773e+002  1.6282300e-022
  8.0026275e+002  1.6231200e-022
  8.0055767e+002  1.6159000e-022
  8.0085249e+002  1.6101500e-022
  8.0114721e+002  1.6056300e-022
  8.0144193e+002  1.6011900e-022
  8.0173655e+002  1.5989900e-022
  8.0203107e+002  1.5962400e-022
  8.0232559e+002  1.5958800e-022
  8.0262001e+002  1.5911500e-022
  8.0291433e+002  1.5904700e-022
  8.0320865e+002  1.5893500e-022
  8.0350288e+002  1.5898500e-022
  8.0379700e+002  1.5908300e-022
  8.0409112e+002  1.5911900e-022
  8.0438514e+002  1.5946900e-022
  8.0467906e+002  1.5984500e-022
  8.0497298e+002  1.6027400e-022
  8.0526680e+002  1.6082000e-022
  8.0556052e+002  1.6171400e-022
  8.0585424e+002  1.6300500e-022
  8.0614776e+002  1.6407100e-022
  8.0644138e+002  1.6550700e-022
  8.0673480e+002  1.6703200e-022
  8.0702822e+002  1.6874700e-022
  8.0732164e+002  1.7076500e-022
  8.0761486e+002  1.7292400e-022
  8.0790808e+002  1.7511600e-022
  8.0820121e+002  1.7726700e-022
  8.0849433e+002  1.7968500e-022
  8.0878735e+002  1.8187900e-022
  8.0908027e+002  1.8424900e-022
  8.0937319e+002  1.8649500e-022
  8.0966601e+002  1.8922300e-022
  8.0995873e+002  1.9206200e-022
  8.1025145e+002  1.9481500e-022
  8.1054407e+002  1.9720600e-022
  8.1083669e+002  1.9982200e-022
  8.1112911e+002  2.0263800e-022
  8.1142164e+002  2.0526100e-022
  8.1171396e+002  2.0762800e-022
  8.1200628e+002  2.1034500e-022
  8.1229850e+002  2.1307200e-022
  8.1259072e+002  2.1521900e-022
  8.1288284e+002  2.1761400e-022
  8.1317486e+002  2.1990400e-022
  8.1346688e+002  2.2237600e-022
  8.1375880e+002  2.2436300e-022
  8.1405062e+002  2.2672600e-022
  8.1434245e+002  2.2842400e-022
  8.1463417e+002  2.2984100e-022
  8.1492579e+002  2.3138800e-022
  8.1521741e+002  2.3266100e-022
  8.1550903e+002  2.3348000e-022
  8.1580045e+002  2.3413000e-022
  8.1609187e+002  2.3480000e-022
  8.1638329e+002  2.3503100e-022
  8.1667452e+002  2.3493400e-022
  8.1696584e+002  2.3426100e-022
  8.1725696e+002  2.3410400e-022
  8.1754808e+002  2.3307900e-022
  8.1783910e+002  2.3153900e-022
  8.1813012e+002  2.2984300e-022
  8.1842104e+002  2.2855600e-022
  8.1871186e+002  2.2648800e-022
  8.1900269e+002  2.2428200e-022
  8.1929341e+002  2.2142100e-022
  8.1958413e+002  2.1881600e-022
  8.1987475e+002  2.1609500e-022
  8.2016527e+002  2.1317100e-022
  8.2045579e+002  2.0969000e-022
  8.2074621e+002  2.0598300e-022
  8.2103664e+002  2.0218500e-022
  8.2132696e+002  1.9873600e-022
  8.2161718e+002  1.9512600e-022
  8.2190740e+002  1.9118400e-022
  8.2219752e+002  1.8674200e-022
  8.2248764e+002  1.8212000e-022
  8.2277767e+002  1.7755600e-022
  8.2306759e+002  1.7356400e-022
  8.2335751e+002  1.6827400e-022
  8.2364733e+002  1.6472100e-022
  8.2393715e+002  1.6283100e-022
  8.2422687e+002  1.6034700e-022
  8.2451650e+002  1.5679200e-022
  8.2480612e+002  1.5283100e-022
  8.2509574e+002  1.4880400e-022
  8.2538516e+002  1.4527900e-022
  8.2567458e+002  1.4189500e-022
  8.2596400e+002  1.3827000e-022
  8.2625333e+002  1.3509500e-022
  8.2654255e+002  1.3182000e-022
  8.2683177e+002  1.2888400e-022
  8.2712089e+002  1.2584100e-022
  8.2741001e+002  1.2292000e-022
  8.2769903e+002  1.1992400e-022
  8.2798796e+002  1.1748400e-022
  8.2827688e+002  1.1553600e-022
  8.2856580e+002  1.1350600e-022
  8.2885452e+002  1.1168800e-022
  8.2914334e+002  1.1002000e-022
  8.2943197e+002  1.0807700e-022
  8.2972059e+002  1.0605200e-022
  8.3000921e+002  1.0435400e-022
  8.3029773e+002  1.0257600e-022
  8.3058615e+002  1.0068800e-022
  8.3087458e+002  9.9457400e-023
  8.3116290e+002  9.7732600e-023
  8.3145122e+002  9.6150800e-023
  8.3173944e+002  9.4664700e-023
  8.3202766e+002  9.3394400e-023
  8.3231579e+002  9.2473200e-023
  8.3260381e+002  9.1185100e-023
  8.3289183e+002  8.9822000e-023
  8.3317985e+002  8.8837900e-023
  8.3346778e+002  8.8026500e-023
  8.3375560e+002  8.7314200e-023
  8.3404342e+002  8.6533900e-023
  8.3433114e+002  8.5345100e-023
  8.3461876e+002  8.4433800e-023
  8.3490649e+002  8.4148100e-023
  8.3519401e+002  8.3891000e-023
  8.3548153e+002  8.3923800e-023
  8.3576905e+002  8.3516300e-023
  8.3605648e+002  8.2804500e-023
  8.3634380e+002  8.2253700e-023
  8.3663112e+002  8.2308500e-023
  8.3691834e+002  8.1803800e-023
  8.3720556e+002  8.1556900e-023
  8.3749269e+002  8.1474600e-023
  8.3777981e+002  8.1342200e-023
  8.3806693e+002  8.1831000e-023
  8.3835385e+002  8.1596400e-023
  8.3864078e+002  8.1475800e-023
  8.3892770e+002  8.1450500e-023
  8.3921452e+002  8.1677900e-023
  8.3950134e+002  8.1786400e-023
  8.3978807e+002  8.1671400e-023
  8.4007469e+002  8.2134100e-023
  8.4036141e+002  8.2474400e-023
  8.4064793e+002  8.2170300e-023
  8.4093446e+002  8.2735300e-023
  8.4122098e+002  8.2940500e-023
  8.4150740e+002  8.3563300e-023
  8.4179372e+002  8.4293200e-023
  8.4208005e+002  8.4720100e-023
  8.4236637e+002  8.5137700e-023
  8.4265249e+002  8.5757900e-023
  8.4293871e+002  8.6672800e-023
  8.4322484e+002  8.7637500e-023
  8.4351086e+002  8.8080500e-023
  8.4379688e+002  8.8933200e-023
  8.4408290e+002  8.9575800e-023
  8.4436883e+002  9.0171100e-023
  8.4465465e+002  9.1355800e-023
  8.4494047e+002  9.2285600e-023
  8.4522619e+002  9.3378200e-023
  8.4551192e+002  9.4655000e-023
  8.4579764e+002  9.5842100e-023
  8.4608326e+002  9.7302200e-023
  8.4636879e+002  9.8618800e-023
  8.4665431e+002  1.0009900e-022
  8.4693983e+002  1.0160700e-022
  8.4722525e+002  1.0349300e-022
  8.4751058e+002  1.0533900e-022
  8.4779590e+002  1.0731300e-022
  8.4808122e+002  1.0968700e-022
  8.4836645e+002  1.1185100e-022
  8.4865157e+002  1.1436900e-022
  8.4893679e+002  1.1686300e-022
  8.4922181e+002  1.1983800e-022
  8.4950684e+002  1.2257800e-022
  8.4979186e+002  1.2545900e-022
  8.5007678e+002  1.2848300e-022
  8.5036171e+002  1.3147900e-022
  8.5064653e+002  1.3476700e-022
  8.5093135e+002  1.3815500e-022
  8.5121607e+002  1.4124700e-022
  8.5150080e+002  1.4439100e-022
  8.5178542e+002  1.4740300e-022
  8.5207004e+002  1.5006600e-022
  8.5235467e+002  1.5235600e-022
  8.5263919e+002  1.5440800e-022
  8.5292361e+002  1.5617500e-022
  8.5320804e+002  1.5684800e-022
  8.5349246e+002  1.5680100e-022
  8.5377678e+002  1.5665800e-022
  8.5406110e+002  1.5641900e-022
  8.5434533e+002  1.5562200e-022
  8.5462955e+002  1.5469300e-022
  8.5491367e+002  1.5382000e-022
  8.5519780e+002  1.5270600e-022
  8.5548182e+002  1.5116000e-022
  8.5576584e+002  1.4955800e-022
  8.5604987e+002  1.4805800e-022
  8.5633379e+002  1.4627700e-022
  8.5661761e+002  1.4465200e-022
  8.5690154e+002  1.4290800e-022
  8.5718526e+002  1.4117700e-022
  8.5746908e+002  1.3932300e-022
  8.5775281e+002  1.3749700e-022
  8.5803643e+002  1.3542200e-022
  8.5832005e+002  1.3365500e-022
  8.5860358e+002  1.3138700e-022
  8.5888720e+002  1.2970800e-022
  8.5917062e+002  1.2754900e-022
  8.5945405e+002  1.2511400e-022
  8.5973747e+002  1.2303300e-022
  8.6002089e+002  1.2080100e-022
  8.6030422e+002  1.1818500e-022
  8.6058744e+002  1.1571300e-022
  8.6087066e+002  1.1336200e-022
  8.6115389e+002  1.1074600e-022
  8.6143701e+002  1.0821200e-022
  8.6172013e+002  1.0567300e-022
  8.6200316e+002  1.0298100e-022
  8.6228618e+002  1.0025900e-022
  8.6256920e+002  9.7381800e-023
  8.6285213e+002  9.4637700e-023
  8.6313505e+002  9.2300100e-023
  8.6341787e+002  8.9775200e-023
  8.6370070e+002  8.7590800e-023
  8.6398342e+002  8.5466600e-023
  8.6426624e+002  8.3268700e-023
  8.6454887e+002  8.1253300e-023
  8.6483149e+002  7.9188200e-023
  8.6511411e+002  7.7504400e-023
  8.6539674e+002  7.5542300e-023
  8.6567926e+002  7.3944700e-023
  8.6596168e+002  7.2312500e-023
  8.6624421e+002  7.0172700e-023
  8.6652663e+002  6.8599300e-023
  8.6680896e+002  6.7025600e-023
  8.6709128e+002  6.6006800e-023
  8.6737360e+002  6.4651400e-023
  8.6765583e+002  6.3411000e-023
  8.6793805e+002  6.1631900e-023
  8.6822017e+002  6.0306900e-023
  8.6850230e+002  5.9203700e-023
  8.6878442e+002  5.7844900e-023
  8.6906644e+002  5.6740800e-023
  8.6934847e+002  5.5888100e-023
  8.6963049e+002  5.4817300e-023
  8.6991242e+002  5.3849100e-023
  8.7019434e+002  5.3027600e-023
  8.7047616e+002  5.2214000e-023
  8.7075799e+002  5.1445700e-023
  8.7103981e+002  5.0819300e-023
  8.7132153e+002  4.9831100e-023
  8.7160326e+002  4.9111100e-023
  8.7188488e+002  4.8303500e-023
  8.7216651e+002  4.7791800e-023
  8.7244813e+002  4.7289300e-023
  8.7272965e+002  4.6623000e-023
  8.7301118e+002  4.6008600e-023
  8.7329270e+002  4.5790200e-023
  8.7357412e+002  4.5273400e-023
  8.7385555e+002  4.4703100e-023
  8.7413697e+002  4.4325500e-023
  8.7441830e+002  4.3793600e-023
  8.7469962e+002  4.3721000e-023
  8.7498084e+002  4.3268400e-023
  8.7526207e+002  4.3070600e-023
  8.7554329e+002  4.3029900e-023
  8.7582442e+002  4.2857700e-023
  8.7610554e+002  4.2607400e-023
  8.7638666e+002  4.2520600e-023
  8.7666769e+002  4.2525700e-023
  8.7694871e+002  4.2179700e-023
  8.7722973e+002  4.2370400e-023
  8.7751066e+002  4.2507100e-023
  8.7779158e+002  4.2870700e-023
  8.7807241e+002  4.2938300e-023
  8.7835333e+002  4.2730400e-023
  8.7863405e+002  4.3160400e-023
  8.7891488e+002  4.3189300e-023
  8.7919560e+002  4.3011100e-023
  8.7947633e+002  4.3322400e-023
  8.7975695e+002  4.3463000e-023
  8.8003767e+002  4.3840800e-023
  8.8031820e+002  4.4253700e-023
  8.8059882e+002  4.4844700e-023
  8.8087935e+002  4.4583500e-023
  8.8115987e+002  4.4459600e-023
  8.8144029e+002  4.6330100e-023
  8.8172072e+002  4.6298500e-023
  8.8200114e+002  4.6062600e-023
  8.8228157e+002  4.6463400e-023
  8.8256189e+002  4.6878600e-023
  8.8284222e+002  4.7594600e-023
  8.8312244e+002  4.8388400e-023
  8.8340266e+002  4.8813000e-023
  8.8368289e+002  4.9375100e-023
  8.8396311e+002  4.9611900e-023
  8.8424324e+002  4.9285900e-023
  8.8452336e+002  4.9115600e-023
  8.8480348e+002  5.0420900e-023
  8.8508351e+002  5.1973100e-023
  8.8536353e+002  5.2776800e-023
  8.8564356e+002  5.3533200e-023
  8.8592348e+002  5.4121600e-023
  8.8620341e+002  5.4549400e-023
  8.8648333e+002  5.4946300e-023
  8.8676315e+002  5.5268400e-023
  8.8704298e+002  5.5499700e-023
  8.8732280e+002  5.6183800e-023
  8.8760263e+002  5.6708200e-023
  8.8788235e+002  5.6975200e-023
  8.8816208e+002  5.7129300e-023
  8.8844170e+002  5.7135800e-023
  8.8872142e+002  5.7252200e-023
  8.8900105e+002  5.7570300e-023
  8.8928057e+002  5.7782700e-023
  8.8956020e+002  5.8099300e-023
  8.8983972e+002  5.8154100e-023
  8.9011925e+002  5.8203300e-023
  8.9039867e+002  5.7940900e-023
  8.9067819e+002  5.7345800e-023
  8.9095762e+002  5.6192700e-023
  8.9123694e+002  5.5390200e-023
  8.9151637e+002  5.4898300e-023
  8.9179569e+002  5.4647300e-023
  8.9207502e+002  5.4874200e-023
  8.9235424e+002  5.5258800e-023
  8.9263356e+002  5.5519900e-023
  8.9291279e+002  5.6272500e-023
  8.9319191e+002  5.6929100e-023
  8.9347114e+002  5.7672800e-023
  8.9375026e+002  5.8884500e-023
  8.9402939e+002  5.9859900e-023
  8.9430851e+002  6.1019700e-023
  8.9458754e+002  6.2092500e-023
  8.9486656e+002  6.1441200e-023
  8.9514558e+002  6.3389600e-023
  8.9542451e+002  6.5654500e-023
  8.9570353e+002  6.6408300e-023
  8.9598246e+002  6.6054300e-023
  8.9626138e+002  6.5980100e-023
  8.9654021e+002  6.7067100e-023
  8.9681903e+002  6.9340500e-023
  8.9709786e+002  7.0390400e-023
  8.9737668e+002  7.0622900e-023
  8.9765550e+002  7.0966500e-023
  8.9793423e+002  7.1410900e-023
  8.9821295e+002  7.1339300e-023
  8.9849168e+002  7.1102200e-023
  8.9877030e+002  7.0857000e-023
  8.9904893e+002  7.0381500e-023
  8.9932755e+002  6.9894900e-023
  8.9960618e+002  6.9323900e-023
  8.9988480e+002  6.8739100e-023
  9.0016333e+002  6.8102800e-023
  9.0044185e+002  6.7465500e-023
  9.0072037e+002  6.6620800e-023
  9.0099880e+002  6.5767400e-023
  9.0127722e+002  6.4575200e-023
  9.0155565e+002  6.3469900e-023
  9.0183407e+002  6.2578400e-023
  9.0211250e+002  6.1034900e-023
  9.0239082e+002  5.9905400e-023
  9.0266915e+002  5.8829000e-023
  9.0294747e+002  5.7629800e-023
  9.0322580e+002  5.6321700e-023
  9.0350402e+002  5.5147100e-023
  9.0378235e+002  5.4460900e-023
  9.0406057e+002  5.1988800e-023
  9.0433869e+002  5.2111700e-023
  9.0461692e+002  5.0659600e-023
  9.0489504e+002  4.9398000e-023
  9.0517317e+002  4.9196400e-023
  9.0545129e+002  4.8512300e-023
  9.0572942e+002  4.6771600e-023
  9.0600744e+002  4.5115200e-023
  9.0628547e+002  4.4850500e-023
  9.0656349e+002  4.4052100e-023
  9.0684152e+002  4.2997300e-023
  9.0711954e+002  4.1921400e-023
  9.0739747e+002  4.0782000e-023
  9.0767539e+002  3.9699400e-023
  9.0795332e+002  3.9016500e-023
  9.0823124e+002  3.8041800e-023
  9.0850916e+002  3.6784300e-023
  9.0878699e+002  3.6068100e-023
  9.0906481e+002  3.5000900e-023
  9.0934264e+002  3.4049300e-023
  9.0962046e+002  3.3362600e-023
  9.0989829e+002  3.2632000e-023
  9.1017601e+002  3.1938900e-023
  9.1045374e+002  3.0956300e-023
  9.1073146e+002  3.0259700e-023
  9.1100919e+002  2.9776900e-023
  9.1128691e+002  2.9074300e-023
  9.1156454e+002  2.8440800e-023
  9.1184216e+002  2.7676600e-023
  9.1211979e+002  2.7236600e-023
  9.1239741e+002  2.6796000e-023
  9.1267504e+002  2.6126200e-023
  9.1295256e+002  2.5246700e-023
  9.1323009e+002  2.4882900e-023
  9.1350771e+002  2.4764500e-023
  9.1378524e+002  2.4169800e-023
  9.1406266e+002  2.3714800e-023
  9.1434019e+002  2.3289600e-023
  9.1461761e+002  2.3358100e-023
  9.1489514e+002  2.2481900e-023
  9.1517256e+002  2.2016400e-023
  9.1544998e+002  2.2528100e-023
  9.1572731e+002  2.2217500e-023
  9.1600473e+002  2.1513100e-023
  9.1628206e+002  2.0644400e-023
  9.1655948e+002  2.0273200e-023
  9.1683681e+002  2.0090900e-023
  9.1711413e+002  2.0334200e-023
  9.1739136e+002  2.0742000e-023
  9.1766868e+002  2.0512100e-023
  9.1794591e+002  1.9888700e-023
  9.1822323e+002  1.9679900e-023
  9.1850046e+002  1.9069300e-023
  9.1877768e+002  1.8650800e-023
  9.1905481e+002  1.8577900e-023
  9.1933203e+002  1.8812100e-023
  9.1960926e+002  1.8922800e-023
  9.1988638e+002  1.8698900e-023
  9.2016351e+002  1.8309400e-023
  9.2044063e+002  1.8191800e-023
  9.2071776e+002  1.8014200e-023
  9.2099488e+002  1.8107600e-023
  9.2127201e+002  1.7715100e-023
  9.2154903e+002  1.7898700e-023
  9.2182606e+002  1.7974800e-023
  9.2210318e+002  1.8009000e-023
  9.2238021e+002  1.7874300e-023
  9.2265723e+002  1.7618700e-023
  9.2293416e+002  1.7756400e-023
  9.2321118e+002  1.7708100e-023
  9.2348821e+002  1.7253400e-023
  9.2376513e+002  1.7318600e-023
  9.2404206e+002  1.7651800e-023
  9.2431908e+002  1.7373500e-023
  9.2459601e+002  1.7303600e-023
  9.2487283e+002  1.7476200e-023
  9.2514976e+002  1.7767900e-023
  9.2542668e+002  1.8024100e-023
  9.2570351e+002  1.7981600e-023
  9.2598043e+002  1.7982100e-023
  9.2625726e+002  1.7985200e-023
  9.2653408e+002  1.7986400e-023
  9.2681091e+002  1.7866200e-023
  9.2708773e+002  1.8073500e-023
  9.2736456e+002  1.8002700e-023
  9.2764138e+002  1.7911600e-023
  9.2791821e+002  1.8131600e-023
  9.2819493e+002  1.8117500e-023
  9.2847166e+002  1.8212700e-023
  9.2874848e+002  1.7998900e-023
  9.2902521e+002  1.7839900e-023
  9.2930193e+002  1.8333300e-023
  9.2957866e+002  1.8115500e-023
  9.2985538e+002  1.8029700e-023
  9.3013211e+002  1.7930200e-023
  9.3040873e+002  1.7839200e-023
  9.3068546e+002  1.7967100e-023
  9.3096208e+002  1.8284500e-023
  9.3123881e+002  1.8009100e-023
  9.3151543e+002  1.8270500e-023
  9.3179206e+002  1.8200500e-023
  9.3206878e+002  1.7915600e-023
  9.3234541e+002  1.7946300e-023
  9.3262203e+002  1.7675600e-023
  9.3289856e+002  1.7311000e-023
  9.3317518e+002  1.6910400e-023
  9.3345181e+002  1.6946600e-023
  9.3372833e+002  1.7078200e-023
  9.3400496e+002  1.7080600e-023
  9.3428148e+002  1.7591500e-023
  9.3455811e+002  1.8101300e-023
  9.3483463e+002  1.8246600e-023
  9.3511116e+002  1.8304300e-023
  9.3538778e+002  1.8744900e-023
  9.3566431e+002  1.9512100e-023
  9.3594083e+002  1.9938200e-023
  9.3621736e+002  2.0105300e-023
  9.3649378e+002  2.0871700e-023
  9.3677031e+002  2.1480000e-023
  9.3704683e+002  2.2308400e-023
  9.3732336e+002  2.3443000e-023
  9.3759978e+002  2.4082000e-023
  9.3787631e+002  2.5204100e-023
  9.3815273e+002  2.6097500e-023
  9.3842926e+002  2.6873200e-023
  9.3870568e+002  2.7696400e-023
  9.3898211e+002  2.8776500e-023
  9.3925863e+002  2.9934900e-023
  9.3953506e+002  3.0693700e-023
  9.3981148e+002  3.2132800e-023
  9.4008791e+002  3.3576200e-023
  9.4036433e+002  3.4490400e-023
  9.4064076e+002  3.5289300e-023
  9.4091718e+002  3.6590400e-023
  9.4119361e+002  3.7563400e-023
  9.4147003e+002  3.8502100e-023
  9.4174646e+002  3.9923600e-023
  9.4202288e+002  4.1049700e-023
  9.4229921e+002  4.2074800e-023
  9.4257563e+002  4.3365800e-023
  9.4285206e+002  4.3917000e-023
  9.4312838e+002  4.4457700e-023
  9.4340481e+002  4.4717800e-023
  9.4368123e+002  4.5035400e-023
  9.4395756e+002  4.5834500e-023
  9.4423399e+002  4.5959700e-023
  9.4451031e+002  4.5508800e-023
  9.4478674e+002  4.5371300e-023
  9.4506306e+002  4.4950800e-023
  9.4533939e+002  4.4657600e-023
  9.4561581e+002  4.3871000e-023
  9.4589214e+002  4.3277300e-023
  9.4616846e+002  4.2194100e-023
  9.4644489e+002  4.0838500e-023
  9.4672121e+002  4.0009700e-023
  9.4699754e+002  3.8809300e-023
  9.4727396e+002  3.7460200e-023
  9.4755029e+002  3.6033400e-023
  9.4782661e+002  3.4663000e-023
  9.4810294e+002  3.3814500e-023
  9.4837936e+002  3.2238900e-023
  9.4865569e+002  3.0595800e-023
  9.4893201e+002  2.9442200e-023
  9.4920834e+002  2.8627900e-023
  9.4948466e+002  2.7702900e-023
  9.4976109e+002  2.6436700e-023
  9.5003741e+002  2.5889600e-023
  9.5031374e+002  2.4769300e-023
  9.5059006e+002  2.3999600e-023
  9.5086639e+002  2.3573100e-023
  9.5114271e+002  2.3036100e-023
  9.5141914e+002  2.2362900e-023
  9.5169546e+002  2.1715400e-023
  9.5197179e+002  2.1015800e-023
  9.5224811e+002  2.0746400e-023
  9.5252454e+002  1.9712900e-023
  9.5280086e+002  1.8841500e-023
  9.5307719e+002  1.8189600e-023
  9.5335351e+002  1.7304700e-023
  9.5362994e+002  1.6914300e-023
  9.5390626e+002  1.6454800e-023
  9.5418259e+002  1.5860500e-023
  9.5445901e+002  1.5989000e-023
  9.5473534e+002  1.6730400e-023
  9.5501166e+002  1.6845000e-023
  9.5528809e+002  1.6145800e-023
  9.5556441e+002  1.5426800e-023
  9.5584084e+002  1.5254100e-023
  9.5611716e+002  1.4811100e-023
  9.5639359e+002  1.4711900e-023
  9.5666991e+002  1.5116200e-023
  9.5694634e+002  1.4796400e-023
  9.5722266e+002  1.3843700e-023
  9.5749909e+002  1.3499800e-023
  9.5777551e+002  1.3427200e-023
  9.5805184e+002  1.3534600e-023
  9.5832826e+002  1.3214700e-023
  9.5860469e+002  1.2925200e-023
  9.5888111e+002  1.2325800e-023
  9.5915754e+002  1.2120000e-023
  9.5943396e+002  1.1507400e-023
  9.5971039e+002  1.1365800e-023
  9.5998681e+002  1.0945800e-023
  9.6026324e+002  1.0580900e-023
  9.6053966e+002  1.0533300e-023
  9.6081609e+002  1.0159300e-023
  9.6109251e+002  1.0012600e-023
  9.6136904e+002  9.5769100e-024
  9.6164547e+002  9.4206000e-024
  9.6192189e+002  9.6404000e-024
  9.6219842e+002  9.2926800e-024
  9.6247484e+002  8.8914800e-024
  9.6275137e+002  8.6730400e-024
  9.6302789e+002  8.8454000e-024
  9.6330432e+002  8.6707700e-024
  9.6358084e+002  9.1874500e-024
  9.6385737e+002  8.9994400e-024
  9.6413389e+002  8.7390100e-024
  9.6441042e+002  8.6494300e-024
  9.6468694e+002  8.7604500e-024
  9.6496347e+002  8.5162800e-024
  9.6523999e+002  8.4906200e-024
  9.6551652e+002  8.2220000e-024
  9.6579314e+002  8.1505500e-024
  9.6606967e+002  7.7399200e-024
  9.6634629e+002  7.4034900e-024
  9.6662282e+002  7.1914600e-024
  9.6689944e+002  7.3387000e-024
  9.6717607e+002  7.1202800e-024
  9.6745269e+002  6.6683500e-024
  9.6772932e+002  6.2175000e-024
  9.6800594e+002  6.2043800e-024
  9.6828257e+002  6.2454700e-024
  9.6855919e+002  6.1983800e-024
  9.6883582e+002  6.1481000e-024
  9.6911244e+002  5.7382000e-024
  9.6938917e+002  5.4775300e-024
  9.6966579e+002  5.3765700e-024
  9.6994252e+002  5.4401500e-024
  9.7021924e+002  4.9209400e-024
  9.7049597e+002  4.7059500e-024
  9.7077269e+002  4.9118300e-024
  9.7104942e+002  4.8581800e-024
  9.7132614e+002  4.6079000e-024
  9.7160287e+002  4.5549700e-024
  9.7187969e+002  4.5504200e-024
  9.7215642e+002  4.3727300e-024
  9.7243324e+002  4.1540900e-024
  9.7270996e+002  4.3081700e-024
  9.7298679e+002  4.3016400e-024
  9.7326361e+002  4.0354300e-024
  9.7354044e+002  4.1285300e-024
  9.7381726e+002  3.8424000e-024
  9.7409419e+002  3.9444200e-024
  9.7437101e+002  3.6434200e-024
  9.7464794e+002  3.6649500e-024
  9.7492476e+002  3.5589900e-024
  9.7520169e+002  3.2913600e-024
  9.7547861e+002  3.1913900e-024
  9.7575554e+002  3.2565400e-024
  9.7603246e+002  3.4806700e-024
  9.7630939e+002  3.2027200e-024
  9.7658641e+002  3.1163400e-024
  9.7686334e+002  2.9002900e-024
  9.7714036e+002  2.9724100e-024
  9.7741739e+002  3.1363600e-024
  9.7769441e+002  3.3543000e-024
  9.7797144e+002  3.7023200e-024
  9.7824846e+002  3.3088400e-024
  9.7852549e+002  3.1435400e-024
  9.7880261e+002  3.3062600e-024
  9.7907964e+002  3.9397500e-024
  9.7935676e+002  3.8398900e-024
  9.7963389e+002  3.3971200e-024
  9.7991101e+002  3.1988600e-024
  9.8018814e+002  3.3759500e-024
  9.8046536e+002  3.7403300e-024
  9.8074249e+002  4.0001500e-024
  9.8101971e+002  4.2154100e-024
  9.8129694e+002  4.5537900e-024
  9.8157416e+002  4.0551000e-024
  9.8185139e+002  3.8626100e-024
  9.8212861e+002  4.1185500e-024
  9.8240594e+002  4.3524000e-024
  9.8268316e+002  4.4044100e-024
  9.8296049e+002  4.8284200e-024
  9.8323781e+002  4.8976700e-024
  9.8351513e+002  4.8776800e-024
  9.8379246e+002  4.7574300e-024
  9.8406988e+002  5.1558800e-024
  9.8434721e+002  5.3270100e-024
  9.8462463e+002  5.4079900e-024
  9.8490206e+002  6.0237200e-024
  9.8517948e+002  6.5027100e-024
  9.8545701e+002  6.4688800e-024
  9.8573443e+002  7.4228800e-024
  9.8601196e+002  7.6758000e-024
  9.8628948e+002  8.1676200e-024
  9.8656701e+002  8.3102000e-024
  9.8684453e+002  8.8912900e-024
  9.8712206e+002  9.6150300e-024
  9.8739968e+002  1.0086700e-023
  9.8767731e+002  1.0665200e-023
  9.8795483e+002  1.1053100e-023
  9.8823256e+002  1.1621200e-023
  9.8851018e+002  1.2219200e-023
  9.8878780e+002  1.2592900e-023
  9.8906553e+002  1.3657400e-023
  9.8934325e+002  1.4318900e-023
  9.8962098e+002  1.6203800e-023
  9.8989870e+002  1.8605200e-023
  9.9017653e+002  2.1623000e-023
  9.9045435e+002  2.6439100e-023
  9.9073208e+002  3.2759300e-023
  9.9101000e+002  3.8510800e-023
  9.9128783e+002  4.1261700e-023
  9.9156565e+002  3.7663500e-023
  9.9184358e+002  3.0160800e-023
  9.9212150e+002  2.5256100e-023
  9.9239942e+002  2.4386900e-023
  9.9267735e+002  2.4793200e-023
  9.9295537e+002  2.4152700e-023
  9.9323340e+002  2.4119200e-023
  9.9351142e+002  2.4819000e-023
  9.9378945e+002  2.4928000e-023
  9.9406747e+002  2.3485600e-023
  9.9434560e+002  2.3933300e-023
  9.9462372e+002  2.5392600e-023
  9.9490185e+002  2.4822600e-023
  9.9517997e+002  2.1601400e-023
  9.9545820e+002  1.9502900e-023
  9.9573642e+002  2.0097700e-023
  9.9601464e+002  2.0001700e-023
  9.9629287e+002  1.7338400e-023
  9.9657109e+002  1.4225100e-023
  9.9684942e+002  1.2935100e-023
  9.9712774e+002  1.4426800e-023
  9.9740607e+002  1.6058700e-023
  9.9768439e+002  1.4368000e-023
  9.9796282e+002  1.1723400e-023
  9.9824124e+002  1.0572000e-023
  9.9851966e+002  1.0285800e-023
  9.9879809e+002  9.8557100e-024
  9.9907661e+002  1.1068800e-023
  9.9935514e+002  1.1345100e-023
  9.9963366e+002  9.0869500e-024
  9.9991219e+002  7.2202100e-024
  1.0001908e+003  6.9766100e-024
  1.0004693e+003  7.1946900e-024
  1.0007480e+003  7.4275300e-024
  1.0010267e+003  7.8934500e-024
  1.0013053e+003  8.5878000e-024
  1.0015840e+003  7.4668900e-024
  1.0018628e+003  6.0535500e-024
  1.0021416e+003  5.0551100e-024
  1.0024203e+003  4.8793000e-024
  1.0026991e+003  5.1457500e-024
  1.0029780e+003  5.8304300e-024
  1.0032569e+003  6.5526700e-024
  1.0035357e+003  6.1055900e-024
  1.0038146e+003  5.6235100e-024
  1.0040937e+003  4.9415900e-024
  1.0043726e+003  4.0394100e-024
  1.0046516e+003  3.5354800e-024
  1.0049306e+003  3.4656300e-024
  1.0052096e+003  3.5710800e-024
  1.0054888e+003  4.1534600e-024
  1.0057678e+003  4.7938400e-024
  1.0060470e+003  4.7227100e-024
  1.0063261e+003  3.8797500e-024
  1.0066054e+003  3.6180000e-024
  1.0068846e+003  3.5315100e-024
  1.0071638e+003  3.1209300e-024
  1.0074430e+003  2.6461300e-024
  1.0077224e+003  2.5290600e-024
  1.0080017e+003  2.6438900e-024
  1.0082811e+003  3.1019700e-024
  1.0085604e+003  3.5171100e-024
  1.0088399e+003  3.6224100e-024
  1.0091194e+003  3.0660000e-024
  1.0093988e+003  2.6042000e-024
  1.0096783e+003  2.5091700e-024
  1.0099579e+003  2.8812100e-024
  1.0102375e+003  2.8421500e-024
  1.0105171e+003  2.2694300e-024
  1.0107967e+003  2.1210300e-024
  1.0110764e+003  2.1842800e-024
  1.0113561e+003  2.3751300e-024
  1.0116358e+003  2.5768300e-024
  1.0119155e+003  2.6725100e-024
  1.0121954e+003  2.8856300e-024
  1.0124752e+003  2.6685300e-024
  1.0127550e+003  2.0469300e-024
  1.0130348e+003  2.1978500e-024
  1.0133148e+003  2.4972600e-024
  1.0135947e+003  2.2997500e-024
  1.0138747e+003  2.1106100e-024
  1.0141547e+003  2.0016000e-024
  1.0144347e+003  1.9455900e-024
  1.0147148e+003  1.8433200e-024
  1.0149949e+003  1.8214600e-024
  1.0152750e+003  1.8576900e-024
  1.0155552e+003  2.0541600e-024
  1.0158355e+003  2.2241100e-024
  1.0161157e+003  2.1761000e-024
  1.0163959e+003  1.7778900e-024
  1.0166762e+003  1.8946700e-024
  1.0169566e+003  1.7381700e-024
  1.0172369e+003  1.5377000e-024
  1.0175173e+003  1.8312600e-024
  1.0177977e+003  1.6965300e-024
  1.0180783e+003  1.4466300e-024
  1.0183587e+003  1.2592400e-024
  1.0186393e+003  1.3166800e-024
  1.0189198e+003  1.2614700e-024
  1.0192005e+003  1.4783100e-024
  1.0194811e+003  1.9789600e-024
  1.0197618e+003  1.4734000e-024
  1.0200424e+003  1.1995700e-024
  1.0203232e+003  1.2221500e-024
  1.0206040e+003  1.3055200e-024
  1.0208848e+003  1.3598800e-024
  1.0211656e+003  1.2879500e-024
  1.0214465e+003  1.2510200e-024
  1.0217275e+003  1.2813900e-024
  1.0220084e+003  1.1850800e-024
  1.0222894e+003  9.9923600e-025
  1.0225704e+003  8.8893100e-025
  1.0228516e+003  1.0252300e-024
  1.0231326e+003  9.7561200e-025
  1.0234138e+003  8.6616100e-025
  1.0236949e+003  1.1744200e-024
  1.0239762e+003  1.1009400e-024
  1.0242574e+003  9.7276400e-025
  1.0245387e+003  9.0584900e-025
  1.0248200e+003  9.3177100e-025
  1.0251014e+003  1.0406700e-024
  1.0253828e+003  1.0403700e-024
  1.0256642e+003  1.1703200e-024
  1.0259457e+003  9.6558300e-025
  1.0262272e+003  1.1660100e-024
  1.0265088e+003  1.5122400e-024
  1.0267904e+003  1.4134100e-024
  1.0270720e+003  1.2527900e-024
  1.0273536e+003  1.3151300e-024
  1.0276354e+003  1.2272000e-024
  1.0279171e+003  1.1923300e-024
  1.0281989e+003  9.4033600e-025
  1.0284807e+003  8.9825100e-025
  1.0287626e+003  8.4992800e-025
  1.0290445e+003  8.3950400e-025
  1.0293264e+003  1.0878500e-024
  1.0296084e+003  7.4614100e-025
  1.0298905e+003  3.4377000e-025
  1.0301725e+003  4.0115100e-025
  1.0304546e+003  8.3883100e-025
  1.0307367e+003  1.2509700e-024
  1.0310189e+003  1.0602000e-024
  1.0313012e+003  1.0904800e-024
  1.0315834e+003  1.2158800e-024
  1.0318657e+003  1.1912700e-024
  1.0321480e+003  1.1554800e-024
  1.0324305e+003  1.3198000e-024
  1.0327129e+003  1.3347400e-024
  1.0329954e+003  1.3027600e-024
  1.0332778e+003  1.3060300e-024
  1.0335605e+003  1.6229000e-024
  1.0338431e+003  1.5145100e-024
  1.0341257e+003  1.4523100e-024
  1.0344083e+003  1.6057000e-024
  1.0346910e+003  1.4642300e-024
  1.0349739e+003  1.3231000e-024
  1.0352567e+003  1.1548100e-024
  1.0355395e+003  1.0415400e-024
  1.0358224e+003  1.2645700e-024
  1.0361054e+003  1.3377100e-024
  1.0363883e+003  1.3699200e-024
  1.0366713e+003  1.5686000e-024
  1.0369544e+003  1.5356400e-024
  1.0372376e+003  1.6334800e-024
  1.0375207e+003  1.7812000e-024
  1.0378039e+003  1.8368200e-024
  1.0380871e+003  2.0020400e-024
  1.0383705e+003  1.9592200e-024
  1.0386538e+003  1.8478800e-024
  1.0389371e+003  1.6610700e-024
  1.0392205e+003  1.8608500e-024
  1.0395040e+003  2.0413100e-024
  1.0397876e+003  1.7537900e-024
  1.0400711e+003  1.4090900e-024
  1.0403547e+003  1.4549600e-024
  1.0406383e+003  1.6989500e-024
  1.0409221e+003  1.9549300e-024
  1.0412058e+003  1.9310300e-024
  1.0414895e+003  2.2673100e-024
  1.0417733e+003  2.6399600e-024
  1.0420573e+003  2.5744200e-024
  1.0423412e+003  2.5538000e-024
  1.0426251e+003  2.7214600e-024
  1.0429091e+003  3.1390600e-024
  1.0431932e+003  3.0369200e-024
  1.0434774e+003  3.1292200e-024
  1.0437615e+003  3.1860100e-024
  1.0440457e+003  3.3283000e-024
  1.0443299e+003  3.6913800e-024
  1.0446143e+003  4.2162300e-024
  1.0448986e+003  4.9982000e-024
  1.0451830e+003  5.9291700e-024
  1.0454674e+003  6.7815100e-024
  1.0457519e+003  7.4253600e-024
  1.0460365e+003  7.9188700e-024
  1.0463210e+003  7.9344900e-024
  1.0466056e+003  6.6840900e-024
  1.0468903e+003  5.8885200e-024
  1.0471751e+003  5.4681300e-024
  1.0474599e+003  5.2154200e-024
  1.0477447e+003  5.3416300e-024
  1.0480295e+003  5.2677700e-024
  1.0483145e+003  5.2016700e-024
  1.0485995e+003  5.3026800e-024
  1.0488845e+003  5.2983200e-024
  1.0491695e+003  5.3215600e-024
  1.0494546e+003  5.3246800e-024
  1.0497399e+003  5.5427800e-024
  1.0500251e+003  5.3878500e-024
  1.0503104e+003  4.8809900e-024
  1.0505957e+003  4.2812600e-024
  1.0508811e+003  4.6853800e-024
  1.0511665e+003  4.7466300e-024
  1.0514520e+003  4.0769300e-024
  1.0517375e+003  3.0802700e-024
  1.0520230e+003  2.7279500e-024
  1.0523088e+003  3.2860800e-024
  1.0525944e+003  3.6208000e-024
  1.0528801e+003  3.7827200e-024
  1.0531659e+003  3.3373700e-024
  1.0534518e+003  2.8438900e-024
  1.0537377e+003  2.2226300e-024
  1.0540236e+003  2.4241700e-024
  1.0543096e+003  2.7969600e-024
  1.0545956e+003  2.6885700e-024
  1.0548818e+003  2.5836300e-024
  1.0551679e+003  2.2469400e-024
  1.0554541e+003  2.1452900e-024
  1.0557403e+003  2.0467600e-024
  1.0558001e+003  1.9204600e-024
  1.0565895e+003  2.1015200e-024
  1.0573787e+003  1.8239300e-024
  1.0581678e+003  1.8205800e-024
  1.0589568e+003  1.6229700e-024
  1.0597455e+003  1.9286200e-024
  1.0605341e+003  1.2825000e-024
  1.0613226e+003  1.6643400e-024
  1.0621110e+003  1.2920400e-024
  1.0628993e+003  1.6662900e-024
  1.0636874e+003  1.4408200e-024
  1.0644753e+003  1.7365600e-024
  1.0652631e+003  2.2606800e-024
  1.0660507e+003  1.4504700e-024
  1.0668383e+003  1.4269800e-024
  1.0676257e+003  1.3786600e-024
  1.0684129e+003  1.2124200e-024
  1.0692001e+003  1.2790300e-024
  1.0699871e+003  1.5035900e-024
