* ============= O3 Absorption Cross Sections at 273K =================================
* 
* Version 2.0
* Date: August 2000
* 
* K. Bogumil, J. Orphal, and J. P. Burrows
* University of Bremen - Institute of Environmental Physics
* P. O. Box 33 04 40
* D-28334 Bremen, Germany
* e-mail: Konstanze.Bogumil@iup.physik.uni-bremen.de
* 
* 1. column title:	wavelength (air) in nm
* 2. column title:	absorption cross-section 
* 
* Wavelength range:	230 - 1070 nm
* Spectral Resolution:	0.32 nm below 311.7 nm, 0.21 nm between 311.7 nm and 402 nm, 0.52 nm
*                         between 402 nm and 597.8 nm, 0.47 nm between 597.8 nm and 781.6 nm,
*                         0.62 nm between 781.6 nm and 1052.5 nm, 1.45 nm above 1052.5 nm (FWHM)
* Number of data points in file:	4227
* 
* Experimental:
* 
* Light source:   Xenon lamp, QTH lamp for 489.5 - 718.9 nm wavelength region
* Cell:	        Multiple reflection quartz cell (White optics)
* 	        optical pathlength 505 cm and 985 cm
* Temperature:    273K
* Gas mixture:    O3, O2, N2
* Condition:      Flow measurement
* Total pressure: 50 - 900 mbar
* Spectrometer:   SCIAMACHY PFM Satellite Spectrometer (Eight channel grating spectrometer)
* 
* Note: Spectral Regions are cutted and concatenated at 287.7 nm, 302.2 nm, 311.7 nm, 316.3 nm, 
*       334.2 nm, 345.2 nm, 402 nm, 489.5 nm, 597.8 nm, 718.9 nm, 781.6 nm and 1052.5 nm.
*
* ===============================================================================================
  2.2992531e+002  4.5413900e-018
  2.3006028e+002  4.5038300e-018
  2.3019525e+002  4.5786600e-018
  2.3033001e+002  4.5875600e-018
  2.3046478e+002  4.6683200e-018
  2.3059945e+002  4.7456000e-018
  2.3073402e+002  4.7445800e-018
  2.3086849e+002  4.7773400e-018
  2.3100295e+002  4.8943700e-018
  2.3113722e+002  4.9113600e-018
  2.3127149e+002  4.9965200e-018
  2.3140566e+002  5.0300500e-018
  2.3153983e+002  5.0065100e-018
  2.3167380e+002  5.0650100e-018
  2.3180776e+002  5.1223400e-018
  2.3194163e+002  5.1603000e-018
  2.3207540e+002  5.2643600e-018
  2.3220917e+002  5.3110100e-018
  2.3234274e+002  5.3582800e-018
  2.3247631e+002  5.3704300e-018
  2.3260977e+002  5.4394100e-018
  2.3274314e+002  5.4809000e-018
  2.3287651e+002  5.5355700e-018
  2.3300968e+002  5.6030500e-018
  2.3314285e+002  5.6109700e-018
  2.3327592e+002  5.7031700e-018
  2.3340888e+002  5.7210100e-018
  2.3354175e+002  5.7715200e-018
  2.3367462e+002  5.8172400e-018
  2.3380739e+002  5.8574000e-018
  2.3394006e+002  5.8950300e-018
  2.3407263e+002  5.9440100e-018
  2.3420520e+002  6.0188600e-018
  2.3433756e+002  6.0755000e-018
  2.3446993e+002  6.1534100e-018
  2.3460220e+002  6.2243400e-018
  2.3473437e+002  6.2714100e-018
  2.3486654e+002  6.3019300e-018
  2.3499851e+002  6.3517800e-018
  2.3513048e+002  6.3733100e-018
  2.3526234e+002  6.3994000e-018
  2.3539411e+002  6.4403500e-018
  2.3552588e+002  6.4811400e-018
  2.3565755e+002  6.5430100e-018
  2.3578902e+002  6.6167700e-018
  2.3592049e+002  6.6811800e-018
  2.3605196e+002  6.7543400e-018
  2.3618323e+002  6.8028600e-018
  2.3631449e+002  6.8470000e-018
  2.3644566e+002  6.9081600e-018
  2.3657673e+002  6.9202500e-018
  2.3670770e+002  6.9585000e-018
  2.3683867e+002  7.0145100e-018
  2.3696954e+002  7.0752300e-018
  2.3710021e+002  7.1357600e-018
  2.3723098e+002  7.1898500e-018
  2.3736154e+002  7.2288700e-018
  2.3749211e+002  7.2773800e-018
  2.3762248e+002  7.3145800e-018
  2.3775285e+002  7.3768700e-018
  2.3788322e+002  7.4267700e-018
  2.3801339e+002  7.4786000e-018
  2.3814356e+002  7.5289800e-018
  2.3827353e+002  7.5953300e-018
  2.3840360e+002  7.6355800e-018
  2.3853347e+002  7.6814900e-018
  2.3866323e+002  7.7194700e-018
  2.3879300e+002  7.7501100e-018
  2.3892267e+002  7.7831300e-018
  2.3905224e+002  7.8238900e-018
  2.3918171e+002  7.8898500e-018
  2.3931118e+002  7.9543900e-018
  2.3944055e+002  8.0266000e-018
  2.3956982e+002  8.1121900e-018
  2.3969899e+002  8.1904200e-018
  2.3982806e+002  8.2503500e-018
  2.3995712e+002  8.2936900e-018
  2.4008609e+002  8.3187300e-018
  2.4021496e+002  8.3274100e-018
  2.4034373e+002  8.3405600e-018
  2.4047250e+002  8.3694300e-018
  2.4060117e+002  8.4111300e-018
  2.4072974e+002  8.4631500e-018
  2.4085821e+002  8.5188600e-018
  2.4098668e+002  8.5719800e-018
  2.4111495e+002  8.6329200e-018
  2.4124322e+002  8.6883900e-018
  2.4137139e+002  8.7488700e-018
  2.4149956e+002  8.8134900e-018
  2.4162753e+002  8.8726300e-018
  2.4175549e+002  8.9040800e-018
  2.4188336e+002  8.9204400e-018
  2.4201123e+002  8.9515700e-018
  2.4213890e+002  8.9841200e-018
  2.4226657e+002  9.0259700e-018
  2.4239414e+002  9.0665000e-018
  2.4252161e+002  9.0991200e-018
  2.4264908e+002  9.1348000e-018
  2.4277635e+002  9.1812700e-018
  2.4290362e+002  9.2404200e-018
  2.4303089e+002  9.3016700e-018
  2.4315796e+002  9.3603500e-018
  2.4328503e+002  9.4129200e-018
  2.4341200e+002  9.4712900e-018
  2.4353887e+002  9.5273800e-018
  2.4366564e+002  9.5856700e-018
  2.4379241e+002  9.6269000e-018
  2.4391908e+002  9.6597600e-018
  2.4404564e+002  9.6744600e-018
  2.4417221e+002  9.6829100e-018
  2.4429858e+002  9.6897200e-018
  2.4442495e+002  9.7023900e-018
  2.4455122e+002  9.7040400e-018
  2.4467749e+002  9.7187500e-018
  2.4480366e+002  9.7538700e-018
  2.4492973e+002  9.8107500e-018
  2.4505570e+002  9.9025200e-018
  2.4518157e+002  1.0002800e-017
  2.4530744e+002  1.0092200e-017
  2.4543321e+002  1.0160500e-017
  2.4555888e+002  1.0207200e-017
  2.4568455e+002  1.0239600e-017
  2.4581012e+002  1.0263000e-017
  2.4593559e+002  1.0269300e-017
  2.4606096e+002  1.0279500e-017
  2.4618633e+002  1.0276600e-017
  2.4631150e+002  1.0271500e-017
  2.4643667e+002  1.0268100e-017
  2.4656184e+002  1.0273000e-017
  2.4668691e+002  1.0286000e-017
  2.4681188e+002  1.0320600e-017
  2.4693675e+002  1.0373700e-017
  2.4706152e+002  1.0438500e-017
  2.4718629e+002  1.0499700e-017
  2.4731096e+002  1.0555100e-017
  2.4743553e+002  1.0599600e-017
  2.4756010e+002  1.0634600e-017
  2.4768457e+002  1.0661500e-017
  2.4780894e+002  1.0678100e-017
  2.4793331e+002  1.0663200e-017
  2.4805748e+002  1.0640900e-017
  2.4818165e+002  1.0633600e-017
  2.4830582e+002  1.0655200e-017
  2.4842979e+002  1.0709200e-017
  2.4855376e+002  1.0787000e-017
  2.4867763e+002  1.0870400e-017
  2.4880150e+002  1.0954100e-017
  2.4892527e+002  1.1013100e-017
  2.4904894e+002  1.1033500e-017
  2.4917251e+002  1.1027500e-017
  2.4929608e+002  1.1017800e-017
  2.4941955e+002  1.1021600e-017
  2.4954292e+002  1.1042800e-017
  2.4966629e+002  1.1080500e-017
  2.4978956e+002  1.1118100e-017
  2.4991273e+002  1.1141500e-017
  2.5003590e+002  1.1145900e-017
  2.5015897e+002  1.1121700e-017
  2.5028194e+002  1.1088300e-017
  2.5040481e+002  1.1051200e-017
  2.5052768e+002  1.1031400e-017
  2.5065045e+002  1.1025000e-017
  2.5077322e+002  1.1034500e-017
  2.5089579e+002  1.1047300e-017
  2.5101836e+002  1.1070600e-017
  2.5114093e+002  1.1107600e-017
  2.5126330e+002  1.1174500e-017
  2.5138577e+002  1.1268500e-017
  2.5150804e+002  1.1376600e-017
  2.5163031e+002  1.1461500e-017
  2.5175249e+002  1.1498700e-017
  2.5187456e+002  1.1492200e-017
  2.5199663e+002  1.1464900e-017
  2.5211860e+002  1.1419000e-017
  2.5224047e+002  1.1377300e-017
  2.5236234e+002  1.1334300e-017
  2.5248411e+002  1.1294600e-017
  2.5260578e+002  1.1272700e-017
  2.5272745e+002  1.1268800e-017
  2.5284902e+002  1.1288200e-017
  2.5297059e+002  1.1309200e-017
  2.5309196e+002  1.1333200e-017
  2.5321343e+002  1.1363200e-017
  2.5333470e+002  1.1397300e-017
  2.5345597e+002  1.1441300e-017
  2.5357714e+002  1.1469400e-017
  2.5369831e+002  1.1491400e-017
  2.5381938e+002  1.1499800e-017
  2.5394035e+002  1.1502500e-017
  2.5406123e+002  1.1486400e-017
  2.5418210e+002  1.1446900e-017
  2.5430297e+002  1.1396100e-017
  2.5442374e+002  1.1343300e-017
  2.5454441e+002  1.1310400e-017
  2.5466498e+002  1.1313300e-017
  2.5478555e+002  1.1364400e-017
  2.5490602e+002  1.1435900e-017
  2.5502649e+002  1.1526900e-017
  2.5514686e+002  1.1607100e-017
  2.5526713e+002  1.1662600e-017
  2.5538740e+002  1.1669200e-017
  2.5550757e+002  1.1646100e-017
  2.5562774e+002  1.1599400e-017
  2.5574772e+002  1.1547700e-017
  2.5586779e+002  1.1499700e-017
  2.5598766e+002  1.1448100e-017
  2.5610753e+002  1.1399300e-017
  2.5622740e+002  1.1337500e-017
  2.5634717e+002  1.1277100e-017
  2.5646684e+002  1.1221400e-017
  2.5658651e+002  1.1191800e-017
  2.5670608e+002  1.1190700e-017
  2.5682555e+002  1.1220100e-017
  2.5694502e+002  1.1259700e-017
  2.5706439e+002  1.1292400e-017
  2.5718377e+002  1.1291700e-017
  2.5730304e+002  1.1264900e-017
  2.5742231e+002  1.1225900e-017
  2.5754138e+002  1.1187000e-017
  2.5766055e+002  1.1160500e-017
  2.5777962e+002  1.1149800e-017
  2.5789859e+002  1.1136700e-017
  2.5801746e+002  1.1141800e-017
  2.5813633e+002  1.1179200e-017
  2.5825520e+002  1.1250400e-017
  2.5837398e+002  1.1346000e-017
  2.5849265e+002  1.1436000e-017
  2.5861132e+002  1.1485500e-017
  2.5872989e+002  1.1488900e-017
  2.5884836e+002  1.1454200e-017
  2.5896683e+002  1.1380900e-017
  2.5908530e+002  1.1271600e-017
  2.5920367e+002  1.1137400e-017
  2.5932194e+002  1.0992800e-017
  2.5944022e+002  1.0864800e-017
  2.5955839e+002  1.0761900e-017
  2.5967656e+002  1.0694400e-017
  2.5979463e+002  1.0662500e-017
  2.5991260e+002  1.0665600e-017
  2.6003067e+002  1.0714500e-017
  2.6014854e+002  1.0794500e-017
  2.6026641e+002  1.0890100e-017
  2.6038418e+002  1.0977200e-017
  2.6050196e+002  1.1029000e-017
  2.6061973e+002  1.1048600e-017
  2.6073730e+002  1.1023800e-017
  2.6085497e+002  1.0954600e-017
  2.6097244e+002  1.0855300e-017
  2.6109001e+002  1.0744300e-017
  2.6120738e+002  1.0635700e-017
  2.6132476e+002  1.0546100e-017
  2.6144213e+002  1.0481100e-017
  2.6155940e+002  1.0443000e-017
  2.6167667e+002  1.0427800e-017
  2.6179384e+002  1.0432500e-017
  2.6191091e+002  1.0445900e-017
  2.6202798e+002  1.0467000e-017
  2.6214505e+002  1.0503600e-017
  2.6226203e+002  1.0540300e-017
  2.6237900e+002  1.0563400e-017
  2.6249587e+002  1.0541100e-017
  2.6261264e+002  1.0477200e-017
  2.6272941e+002  1.0376200e-017
  2.6284618e+002  1.0256100e-017
  2.6296285e+002  1.0138100e-017
  2.6307943e+002  1.0032900e-017
  2.6319600e+002  9.9519600e-018
  2.6331257e+002  9.8932900e-018
  2.6342904e+002  9.8537800e-018
  2.6354541e+002  9.8364900e-018
  2.6366178e+002  9.8440800e-018
  2.6377815e+002  9.8749800e-018
  2.6389443e+002  9.9099500e-018
  2.6401070e+002  9.9465700e-018
  2.6412687e+002  9.9711300e-018
  2.6424304e+002  9.9852900e-018
  2.6435911e+002  9.9867800e-018
  2.6447518e+002  9.9692500e-018
  2.6459116e+002  9.9100300e-018
  2.6470713e+002  9.8167700e-018
  2.6482300e+002  9.6982500e-018
  2.6493887e+002  9.5837100e-018
  2.6505464e+002  9.5117400e-018
  2.6517041e+002  9.4873300e-018
  2.6528618e+002  9.5002400e-018
  2.6540186e+002  9.5191700e-018
  2.6551743e+002  9.5284000e-018
  2.6563310e+002  9.5171300e-018
  2.6574857e+002  9.4884200e-018
  2.6586414e+002  9.4378800e-018
  2.6597951e+002  9.3714600e-018
  2.6609499e+002  9.2935400e-018
  2.6621036e+002  9.2311800e-018
  2.6632563e+002  9.1796300e-018
  2.6644090e+002  9.1344900e-018
  2.6655617e+002  9.0738500e-018
  2.6667134e+002  8.9896700e-018
  2.6678652e+002  8.8867900e-018
  2.6690159e+002  8.7851700e-018
  2.6701666e+002  8.7097500e-018
  2.6713173e+002  8.6866700e-018
  2.6724670e+002  8.7118600e-018
  2.6736158e+002  8.7684200e-018
  2.6747645e+002  8.8162300e-018
  2.6759132e+002  8.8238200e-018
  2.6770619e+002  8.7953400e-018
  2.6782096e+002  8.7414300e-018
  2.6793563e+002  8.6664800e-018
  2.6805031e+002  8.5826200e-018
  2.6816498e+002  8.4887300e-018
  2.6827965e+002  8.3965000e-018
  2.6839422e+002  8.3059800e-018
  2.6850869e+002  8.2291500e-018
  2.6862316e+002  8.1693800e-018
  2.6873764e+002  8.1130500e-018
  2.6885201e+002  8.0537500e-018
  2.6896638e+002  7.9942900e-018
  2.6908075e+002  7.9422600e-018
  2.6919502e+002  7.9234900e-018
  2.6930930e+002  7.9400700e-018
  2.6942357e+002  7.9867800e-018
  2.6953774e+002  8.0356800e-018
  2.6965181e+002  8.0583600e-018
  2.6976598e+002  8.0335600e-018
  2.6988006e+002  7.9708200e-018
  2.6999403e+002  7.8839000e-018
  2.7010800e+002  7.7945500e-018
  2.7022197e+002  7.7117800e-018
  2.7033594e+002  7.6321200e-018
  2.7044982e+002  7.5529000e-018
  2.7056359e+002  7.4792500e-018
  2.7067746e+002  7.4186000e-018
  2.7079123e+002  7.3657500e-018
  2.7090490e+002  7.3255700e-018
  2.7101867e+002  7.2905200e-018
  2.7113235e+002  7.2525500e-018
  2.7124592e+002  7.2104200e-018
  2.7135959e+002  7.1779900e-018
  2.7147316e+002  7.1492600e-018
  2.7158663e+002  7.1366800e-018
  2.7170011e+002  7.1277000e-018
  2.7181358e+002  7.1124600e-018
  2.7192705e+002  7.0784300e-018
  2.7204042e+002  7.0147500e-018
  2.7215379e+002  6.9377900e-018
  2.7226707e+002  6.8680700e-018
  2.7238044e+002  6.8191100e-018
  2.7249371e+002  6.7770300e-018
  2.7260688e+002  6.7273700e-018
  2.7272006e+002  6.6725700e-018
  2.7283323e+002  6.6197000e-018
  2.7294640e+002  6.5857500e-018
  2.7305947e+002  6.5657600e-018
  2.7317254e+002  6.5328300e-018
  2.7328562e+002  6.4785800e-018
  2.7339859e+002  6.4092200e-018
  2.7351156e+002  6.3386500e-018
  2.7362453e+002  6.2691800e-018
  2.7373740e+002  6.2037900e-018
  2.7385038e+002  6.1321600e-018
  2.7396315e+002  6.0602500e-018
  2.7407602e+002  5.9865400e-018
  2.7418879e+002  5.9224900e-018
  2.7430156e+002  5.8748600e-018
  2.7441434e+002  5.8593200e-018
  2.7452701e+002  5.8628900e-018
  2.7463968e+002  5.8699900e-018
  2.7475235e+002  5.8672700e-018
  2.7486493e+002  5.8440500e-018
  2.7497760e+002  5.8031200e-018
  2.7509007e+002  5.7493700e-018
  2.7520264e+002  5.6923900e-018
  2.7531511e+002  5.6332400e-018
  2.7542769e+002  5.5715800e-018
  2.7554006e+002  5.5112800e-018
  2.7565253e+002  5.4502200e-018
  2.7576490e+002  5.3969900e-018
  2.7587727e+002  5.3577500e-018
  2.7598965e+002  5.3376100e-018
  2.7610192e+002  5.3223800e-018
  2.7621429e+002  5.2921700e-018
  2.7632656e+002  5.2427100e-018
  2.7643874e+002  5.1823400e-018
  2.7655101e+002  5.1280700e-018
  2.7666318e+002  5.0868700e-018
  2.7677535e+002  5.0550500e-018
  2.7688742e+002  5.0173800e-018
  2.7699960e+002  4.9846600e-018
  2.7711167e+002  4.9600800e-018
  2.7722374e+002  4.9389500e-018
  2.7733581e+002  4.9115200e-018
  2.7744779e+002  4.8674800e-018
  2.7755976e+002  4.8142600e-018
  2.7767173e+002  4.7497200e-018
  2.7778370e+002  4.6867400e-018
  2.7789567e+002  4.6278300e-018
  2.7800755e+002  4.5802500e-018
  2.7811942e+002  4.5414600e-018
  2.7823129e+002  4.5086300e-018
  2.7834306e+002  4.4740100e-018
  2.7845494e+002  4.4386300e-018
  2.7856671e+002  4.4016700e-018
  2.7867848e+002  4.3645300e-018
  2.7879015e+002  4.3178800e-018
  2.7890193e+002  4.2644400e-018
  2.7901360e+002  4.2147800e-018
  2.7912527e+002  4.1692600e-018
  2.7923694e+002  4.1289200e-018
  2.7934861e+002  4.1001900e-018
  2.7946019e+002  4.0830800e-018
  2.7957176e+002  4.0672700e-018
  2.7968333e+002  4.0456000e-018
  2.7979490e+002  4.0164900e-018
  2.7990648e+002  3.9767700e-018
  2.8001795e+002  3.9194700e-018
  2.8012942e+002  3.8536900e-018
  2.8024089e+002  3.7882300e-018
  2.8035237e+002  3.7339500e-018
  2.8046384e+002  3.6910800e-018
  2.8057521e+002  3.6557700e-018
  2.8068658e+002  3.6316800e-018
  2.8079805e+002  3.6137800e-018
  2.8090933e+002  3.5951100e-018
  2.8102070e+002  3.5680500e-018
  2.8113207e+002  3.5286000e-018
  2.8124334e+002  3.4703300e-018
  2.8135462e+002  3.4056300e-018
  2.8146589e+002  3.3426200e-018
  2.8157716e+002  3.2906900e-018
  2.8168833e+002  3.2445300e-018
  2.8179961e+002  3.2106600e-018
  2.8191078e+002  3.1862800e-018
  2.8202195e+002  3.1705700e-018
  2.8213312e+002  3.1601500e-018
  2.8224430e+002  3.1431900e-018
  2.8235547e+002  3.1176800e-018
  2.8246654e+002  3.0794100e-018
  2.8257761e+002  3.0406800e-018
  2.8268869e+002  3.0071400e-018
  2.8279976e+002  2.9802200e-018
  2.8291083e+002  2.9640700e-018
  2.8302190e+002  2.9545500e-018
  2.8313287e+002  2.9582400e-018
  2.8324395e+002  2.9610600e-018
  2.8335492e+002  2.9501500e-018
  2.8346589e+002  2.9182200e-018
  2.8357686e+002  2.8657600e-018
  2.8368784e+002  2.8089000e-018
  2.8379871e+002  2.7523900e-018
  2.8390968e+002  2.6974700e-018
  2.8402055e+002  2.6489100e-018
  2.8413143e+002  2.6154000e-018
  2.8424240e+002  2.5926900e-018
  2.8435317e+002  2.5712700e-018
  2.8446404e+002  2.5498100e-018
  2.8457492e+002  2.5229700e-018
  2.8468569e+002  2.4972000e-018
  2.8479656e+002  2.4733000e-018
  2.8490733e+002  2.4449500e-018
  2.8501811e+002  2.4073900e-018
  2.8512888e+002  2.3663800e-018
  2.8523965e+002  2.3257800e-018
  2.8535042e+002  2.2933100e-018
  2.8546119e+002  2.2689100e-018
  2.8557187e+002  2.2544400e-018
  2.8568264e+002  2.2450800e-018
  2.8579331e+002  2.2319800e-018
  2.8590398e+002  2.2145300e-018
  2.8601466e+002  2.1921100e-018
  2.8612533e+002  2.1676400e-018
  2.8623600e+002  2.1410800e-018
  2.8634667e+002  2.1125600e-018
  2.8645725e+002  2.0843600e-018
  2.8656792e+002  2.0562100e-018
  2.8667849e+002  2.0298000e-018
  2.8678916e+002  2.0081200e-018
  2.8689974e+002  1.9919700e-018
  2.8701031e+002  1.9777400e-018
  2.8712088e+002  1.9608800e-018
  2.8723145e+002  1.9386800e-018
  2.8734203e+002  1.9112600e-018
  2.8745260e+002  1.8771700e-018
  2.8756307e+002  1.8393100e-018
  2.8767364e+002  1.8022300e-018
  2.8778412e+002  1.7686800e-018
  2.8789469e+002  1.7397000e-018
  2.8800516e+002  1.7143300e-018
  2.8811563e+002  1.6925200e-018
  2.8822611e+002  1.6728300e-018
  2.8833658e+002  1.6558500e-018
  2.8844705e+002  1.6401000e-018
  2.8855752e+002  1.6243200e-018
  2.8866799e+002  1.6063100e-018
  2.8877837e+002  1.5861900e-018
  2.8888884e+002  1.5650800e-018
  2.8899921e+002  1.5455200e-018
  2.8910968e+002  1.5260500e-018
  2.8922006e+002  1.5072400e-018
  2.8933043e+002  1.4868000e-018
  2.8944090e+002  1.4650500e-018
  2.8955127e+002  1.4427400e-018
  2.8966165e+002  1.4238100e-018
  2.8977202e+002  1.4083500e-018
  2.8988239e+002  1.3943400e-018
  2.8999276e+002  1.3805300e-018
  2.9010304e+002  1.3646500e-018
  2.9021341e+002  1.3482200e-018
  2.9032378e+002  1.3334900e-018
  2.9043405e+002  1.3211000e-018
  2.9054443e+002  1.3075400e-018
  2.9065470e+002  1.2934800e-018
  2.9076507e+002  1.2772800e-018
  2.9087534e+002  1.2597100e-018
  2.9098562e+002  1.2414000e-018
  2.9109589e+002  1.2234300e-018
  2.9120626e+002  1.2040800e-018
  2.9131653e+002  1.1839200e-018
  2.9142681e+002  1.1630000e-018
  2.9153708e+002  1.1410900e-018
  2.9164735e+002  1.1193500e-018
  2.9175752e+002  1.1029200e-018
  2.9186780e+002  1.0890100e-018
  2.9197807e+002  1.0749200e-018
  2.9208834e+002  1.0604100e-018
  2.9219851e+002  1.0470700e-018
  2.9230878e+002  1.0367700e-018
  2.9241906e+002  1.0291700e-018
  2.9252923e+002  1.0223100e-018
  2.9263950e+002  1.0131800e-018
  2.9274967e+002  1.0012200e-018
  2.9285985e+002  9.8752200e-019
  2.9297012e+002  9.7183500e-019
  2.9308029e+002  9.5552300e-019
  2.9319046e+002  9.3946200e-019
  2.9330064e+002  9.2330600e-019
  2.9341091e+002  9.0651700e-019
  2.9352108e+002  8.8918000e-019
  2.9363125e+002  8.7362700e-019
  2.9374143e+002  8.6008500e-019
  2.9385160e+002  8.4907700e-019
  2.9396177e+002  8.4091700e-019
  2.9407194e+002  8.3431400e-019
  2.9418212e+002  8.2692900e-019
  2.9429219e+002  8.1683600e-019
  2.9440236e+002  8.0715100e-019
  2.9451253e+002  7.9795800e-019
  2.9462271e+002  7.8760800e-019
  2.9473278e+002  7.7666800e-019
  2.9484295e+002  7.6606100e-019
  2.9495312e+002  7.5486600e-019
  2.9506319e+002  7.4202700e-019
  2.9517337e+002  7.2748900e-019
  2.9528354e+002  7.1387000e-019
  2.9539361e+002  6.9946600e-019
  2.9550378e+002  6.8756800e-019
  2.9561386e+002  6.7886500e-019
  2.9572393e+002  6.7114500e-019
  2.9583410e+002  6.6258600e-019
  2.9594417e+002  6.5266600e-019
  2.9605435e+002  6.3949500e-019
  2.9616442e+002  6.2639700e-019
  2.9627449e+002  6.1583900e-019
  2.9638456e+002  6.0874700e-019
  2.9649474e+002  6.0485800e-019
  2.9660481e+002  6.0115500e-019
  2.9671488e+002  5.9582700e-019
  2.9682495e+002  5.8820600e-019
  2.9693503e+002  5.7790400e-019
  2.9704510e+002  5.6558600e-019
  2.9715527e+002  5.5586700e-019
  2.9726534e+002  5.4650000e-019
  2.9737541e+002  5.3696500e-019
  2.9748549e+002  5.2830300e-019
  2.9759556e+002  5.1910700e-019
  2.9770563e+002  5.1047100e-019
  2.9781570e+002  5.0241700e-019
  2.9792568e+002  4.9474400e-019
  2.9803575e+002  4.8771300e-019
  2.9814582e+002  4.8168400e-019
  2.9825589e+002  4.7509200e-019
  2.9836597e+002  4.6872200e-019
  2.9847604e+002  4.6280400e-019
  2.9858611e+002  4.5864300e-019
  2.9869608e+002  4.5450100e-019
  2.9880616e+002  4.5013900e-019
  2.9891623e+002  4.4350700e-019
  2.9902630e+002  4.3535600e-019
  2.9913627e+002  4.2759000e-019
  2.9924634e+002  4.1864700e-019
  2.9935642e+002  4.1005900e-019
  2.9946639e+002  4.0132900e-019
  2.9957646e+002  3.9439400e-019
  2.9968643e+002  3.8888400e-019
  2.9979651e+002  3.8404900e-019
  2.9990648e+002  3.8077500e-019
  3.0001655e+002  3.7627400e-019
  3.0012652e+002  3.7168000e-019
  3.0023660e+002  3.6600500e-019
  3.0034657e+002  3.6076300e-019
  3.0045664e+002  3.5708700e-019
  3.0056661e+002  3.5292800e-019
  3.0067669e+002  3.4772400e-019
  3.0078666e+002  3.4192600e-019
  3.0089663e+002  3.3511300e-019
  3.0100670e+002  3.2731800e-019
  3.0111667e+002  3.2022200e-019
  3.0122665e+002  3.1418600e-019
  3.0133662e+002  3.0922800e-019
  3.0144669e+002  3.0502900e-019
  3.0155666e+002  3.0183900e-019
  3.0166664e+002  2.9842000e-019
  3.0177661e+002  2.9626000e-019
  3.0188658e+002  2.9318100e-019
  3.0199655e+002  2.9020400e-019
  3.0210653e+002  2.8658300e-019
  3.0221650e+002  2.8281800e-019
  3.0232647e+002  2.7828700e-019
  3.0243644e+002  2.7332200e-019
  3.0254641e+002  2.6810300e-019
  3.0265639e+002  2.6295000e-019
  3.0276636e+002  2.5754000e-019
  3.0287633e+002  2.5207200e-019
  3.0298630e+002  2.4700100e-019
  3.0309628e+002  2.4269800e-019
  3.0320625e+002  2.3902700e-019
  3.0331612e+002  2.3598900e-019
  3.0342609e+002  2.3330200e-019
  3.0353607e+002  2.3057500e-019
  3.0364594e+002  2.2835500e-019
  3.0375591e+002  2.2686200e-019
  3.0386588e+002  2.2578400e-019
  3.0397575e+002  2.2449500e-019
  3.0408573e+002  2.2191000e-019
  3.0419560e+002  2.1821500e-019
  3.0430557e+002  2.1458200e-019
  3.0441544e+002  2.1131400e-019
  3.0452542e+002  2.0769400e-019
  3.0463529e+002  2.0320800e-019
  3.0474516e+002  1.9804100e-019
  3.0485513e+002  1.9361500e-019
  3.0496501e+002  1.8934000e-019
  3.0507488e+002  1.8507100e-019
  3.0518475e+002  1.8131400e-019
  3.0529462e+002  1.7807600e-019
  3.0540449e+002  1.7563100e-019
  3.0551437e+002  1.7431100e-019
  3.0562424e+002  1.7336200e-019
  3.0573411e+002  1.7225200e-019
  3.0584398e+002  1.7050500e-019
  3.0595386e+002  1.6839800e-019
  3.0606373e+002  1.6704600e-019
  3.0617350e+002  1.6661100e-019
  3.0628337e+002  1.6535900e-019
  3.0639324e+002  1.6294200e-019
  3.0650302e+002  1.5973700e-019
  3.0661289e+002  1.5685300e-019
  3.0672266e+002  1.5416800e-019
  3.0683253e+002  1.5117700e-019
  3.0694231e+002  1.4745700e-019
  3.0705208e+002  1.4352500e-019
  3.0716185e+002  1.3977000e-019
  3.0727172e+002  1.3654500e-019
  3.0738150e+002  1.3393200e-019
  3.0749127e+002  1.3155700e-019
  3.0760104e+002  1.2956300e-019
  3.0771081e+002  1.2863700e-019
  3.0782048e+002  1.2856100e-019
  3.0793026e+002  1.2798500e-019
  3.0804003e+002  1.2733900e-019
  3.0814980e+002  1.2657300e-019
  3.0825947e+002  1.2467800e-019
  3.0836925e+002  1.2215500e-019
  3.0847892e+002  1.2044300e-019
  3.0858859e+002  1.2029800e-019
  3.0869836e+002  1.1981300e-019
  3.0880804e+002  1.1888600e-019
  3.0891771e+002  1.1716600e-019
  3.0902738e+002  1.1584700e-019
  3.0913705e+002  1.1359700e-019
  3.0924672e+002  1.1063100e-019
  3.0935630e+002  1.0703000e-019
  3.0946597e+002  1.0282100e-019
  3.0957564e+002  9.9939000e-020
  3.0968521e+002  9.8120000e-020
  3.0979489e+002  9.6666400e-020
  3.0990446e+002  9.5934100e-020
  3.1001403e+002  9.5460800e-020
  3.1012360e+002  9.5558600e-020
  3.1023317e+002  9.5153300e-020
  3.1034275e+002  9.4299000e-020
  3.1045232e+002  9.2088100e-020
  3.1056189e+002  8.9932700e-020
  3.1067136e+002  8.9018200e-020
  3.1078094e+002  8.7909600e-020
  3.1089041e+002  8.7196800e-020
  3.1099988e+002  8.6253300e-020
  3.1110935e+002  8.5510900e-020
  3.1121883e+002  8.5416200e-020
  3.1132830e+002  8.5218300e-020
  3.1143777e+002  8.4619000e-020
  3.1154724e+002  8.3068400e-020
  3.1162452e+002  8.0094200e-020
  3.1173929e+002  7.7682400e-020
  3.1185396e+002  7.5254200e-020
  3.1196874e+002  7.3472700e-020
  3.1208341e+002  7.1836400e-020
  3.1219808e+002  7.0578000e-020
  3.1231275e+002  6.9096300e-020
  3.1242742e+002  6.7686300e-020
  3.1254199e+002  6.6196700e-020
  3.1265656e+002  6.5109200e-020
  3.1277123e+002  6.4200200e-020
  3.1288570e+002  6.3666900e-020
  3.1300027e+002  6.3045300e-020
  3.1311475e+002  6.2523400e-020
  3.1322932e+002  6.2961900e-020
  3.1334379e+002  6.4138500e-020
  3.1345826e+002  6.4848000e-020
  3.1357263e+002  6.4610700e-020
  3.1368710e+002  6.3328400e-020
  3.1380147e+002  6.1676600e-020
  3.1391584e+002  5.9847300e-020
  3.1403011e+002  5.7759900e-020
  3.1414448e+002  5.5640300e-020
  3.1425876e+002  5.3582500e-020
  3.1437303e+002  5.1440900e-020
  3.1448730e+002  4.9688200e-020
  3.1460157e+002  4.8529500e-020
  3.1471574e+002  4.8003000e-020
  3.1483001e+002  4.7805200e-020
  3.1494418e+002  4.7351100e-020
  3.1505835e+002  4.6632000e-020
  3.1517242e+002  4.6620700e-020
  3.1528660e+002  4.7487100e-020
  3.1540067e+002  4.9265200e-020
  3.1551474e+002  5.0337500e-020
  3.1562881e+002  4.9804200e-020
  3.1574278e+002  4.7893900e-020
  3.1585675e+002  4.5711000e-020
  3.1597072e+002  4.3563300e-020
  3.1608469e+002  4.2105900e-020
  3.1619866e+002  4.0972900e-020
  3.1631254e+002  4.0034800e-020
  3.1642651e+002  3.8802500e-020
  3.1654038e+002  3.7547600e-020
  3.1665415e+002  3.6411200e-020
  3.1676802e+002  3.6068800e-020
  3.1688179e+002  3.6645600e-020
  3.1699556e+002  3.7551200e-020
  3.1710933e+002  3.7614200e-020
  3.1722310e+002  3.6985600e-020
  3.1733678e+002  3.6523500e-020
  3.1745055e+002  3.7336200e-020
  3.1756422e+002  3.8395400e-020
  3.1767779e+002  3.8215400e-020
  3.1779146e+002  3.6618000e-020
  3.1790503e+002  3.5041400e-020
  3.1801860e+002  3.3926600e-020
  3.1813217e+002  3.2778300e-020
  3.1824574e+002  3.1088200e-020
  3.1835922e+002  2.9365600e-020
  3.1847279e+002  2.8012500e-020
  3.1858626e+002  2.7148500e-020
  3.1869963e+002  2.6345400e-020
  3.1881310e+002  2.5585000e-020
  3.1892647e+002  2.4723700e-020
  3.1903984e+002  2.4228300e-020
  3.1915321e+002  2.4572600e-020
  3.1926659e+002  2.6175500e-020
  3.1937986e+002  2.8097900e-020
  3.1949313e+002  2.8944600e-020
  3.1960640e+002  2.8432800e-020
  3.1971967e+002  2.7808500e-020
  3.1983284e+002  2.8269600e-020
  3.1994611e+002  2.9330400e-020
  3.2005928e+002  2.9051600e-020
  3.2017246e+002  2.7492000e-020
  3.2028553e+002  2.5486100e-020
  3.2039860e+002  2.3886400e-020
  3.2051177e+002  2.2745900e-020
  3.2062474e+002  2.1636800e-020
  3.2073781e+002  2.0223300e-020
  3.2085088e+002  1.8881000e-020
  3.2096385e+002  1.7811900e-020
  3.2107683e+002  1.7165200e-020
  3.2118970e+002  1.6944500e-020
  3.2130267e+002  1.6989700e-020
  3.2141554e+002  1.6940200e-020
  3.2152841e+002  1.6673700e-020
  3.2164128e+002  1.6606700e-020
  3.2175415e+002  1.7487600e-020
  3.2186692e+002  1.9667800e-020
  3.2197970e+002  2.1901400e-020
  3.2209247e+002  2.2402800e-020
  3.2220524e+002  2.1563800e-020
  3.2231791e+002  2.0432900e-020
  3.2243058e+002  2.0267800e-020
  3.2254325e+002  2.1209600e-020
  3.2265592e+002  2.1688300e-020
  3.2276860e+002  2.0826800e-020
  3.2288117e+002  1.9248700e-020
  3.2299374e+002  1.7554800e-020
  3.2310631e+002  1.5990800e-020
  3.2321878e+002  1.4635400e-020
  3.2333135e+002  1.3504300e-020
  3.2344382e+002  1.2470200e-020
  3.2355629e+002  1.1598300e-020
  3.2366867e+002  1.0878500e-020
  3.2378114e+002  1.0430400e-020
  3.2389351e+002  1.0326200e-020
  3.2400588e+002  1.0715100e-020
  3.2411825e+002  1.1279600e-020
  3.2423052e+002  1.1572600e-020
  3.2434289e+002  1.1556800e-020
  3.2445517e+002  1.1591100e-020
  3.2456734e+002  1.2286700e-020
  3.2467961e+002  1.4238700e-020
  3.2479178e+002  1.6161400e-020
  3.2490405e+002  1.6482600e-020
  3.2501612e+002  1.5582400e-020
  3.2512829e+002  1.4410900e-020
  3.2524047e+002  1.3509600e-020
  3.2535254e+002  1.3368300e-020
  3.2546461e+002  1.3566900e-020
  3.2557658e+002  1.3178900e-020
  3.2568865e+002  1.2247200e-020
  3.2580062e+002  1.1245600e-020
  3.2591259e+002  1.0277700e-020
  3.2602457e+002  9.4690800e-021
  3.2613654e+002  8.7780100e-021
  3.2624841e+002  8.2169900e-021
  3.2636028e+002  7.7797200e-021
  3.2647215e+002  7.3321100e-021
  3.2658402e+002  6.9753200e-021
  3.2669580e+002  6.7261000e-021
  3.2680757e+002  6.6755400e-021
  3.2691934e+002  7.0551100e-021
  3.2703111e+002  7.8441600e-021
  3.2714288e+002  8.4404300e-021
  3.2725455e+002  8.5323900e-021
  3.2736622e+002  8.2854400e-021
  3.2747790e+002  8.0557000e-021
  3.2758957e+002  8.4076800e-021
  3.2770114e+002  9.7172300e-021
  3.2781271e+002  1.1283200e-020
  3.2792428e+002  1.1968100e-020
  3.2803585e+002  1.1624200e-020
  3.2814733e+002  1.0784000e-020
  3.2825880e+002  9.8696900e-021
  3.2837027e+002  8.9609700e-021
  3.2848174e+002  8.1650200e-021
  3.2859321e+002  7.3875700e-021
  3.2870458e+002  6.6509700e-021
  3.2881595e+002  6.0357900e-021
  3.2892733e+002  5.5421200e-021
  3.2903870e+002  5.1630800e-021
  3.2914997e+002  4.7751700e-021
  3.2926124e+002  4.4931300e-021
  3.2937251e+002  4.3092900e-021
  3.2948378e+002  4.2509600e-021
  3.2959506e+002  4.2026700e-021
  3.2970623e+002  4.1386800e-021
  3.2981740e+002  4.0629100e-021
  3.2992857e+002  4.0621200e-021
  3.3003974e+002  4.4291800e-021
  3.3015081e+002  5.3683300e-021
  3.3026189e+002  6.3012300e-021
  3.3037296e+002  6.6420300e-021
  3.3048403e+002  6.4914700e-021
  3.3059500e+002  6.1408200e-021
  3.3070607e+002  5.9154400e-021
  3.3081704e+002  6.1622400e-021
  3.3092792e+002  7.0203100e-021
  3.3103889e+002  7.6574400e-021
  3.3114976e+002  7.5317200e-021
  3.3126073e+002  6.9744900e-021
  3.3137160e+002  6.3231000e-021
  3.3148237e+002  5.7231600e-021
  3.3159325e+002  5.1851100e-021
  3.3170402e+002  4.6785500e-021
  3.3181479e+002  4.2424700e-021
  3.3192556e+002  3.8335900e-021
  3.3203633e+002  3.4739400e-021
  3.3214700e+002  3.1713500e-021
  3.3225768e+002  2.9381000e-021
  3.3236835e+002  2.7686000e-021
  3.3247902e+002  2.6287000e-021
  3.3258959e+002  2.5576600e-021
  3.3270026e+002  2.5972400e-021
  3.3281083e+002  2.7069300e-021
  3.3292141e+002  2.8847500e-021
  3.3303188e+002  3.0436300e-021
  3.3314245e+002  3.1699200e-021
  3.3325292e+002  3.2164200e-021
  3.3336339e+002  3.4197900e-021
  3.3347387e+002  4.0163300e-021
  3.3358424e+002  4.8209600e-021
  3.3369471e+002  5.3058300e-021
  3.3380508e+002  5.3347500e-021
  3.3391545e+002  5.0345100e-021
  3.3402582e+002  4.5897100e-021
  3.3413610e+002  4.1382700e-021
  3.3424637e+002  3.7077000e-021
  3.3435674e+002  3.2485300e-021
  3.3446691e+002  3.0074100e-021
  3.3457718e+002  2.7985800e-021
  3.3468736e+002  2.5809100e-021
  3.3479763e+002  2.3438000e-021
  3.3490780e+002  2.1185600e-021
  3.3501797e+002  1.9144300e-021
  3.3512804e+002  1.7435300e-021
  3.3523821e+002  1.6147400e-021
  3.3534829e+002  1.5402900e-021
  3.3545836e+002  1.5052300e-021
  3.3556833e+002  1.4845000e-021
  3.3567840e+002  1.4518300e-021
  3.3578837e+002  1.4045400e-021
  3.3589835e+002  1.3821900e-021
  3.3600832e+002  1.4456500e-021
  3.3611829e+002  1.6176200e-021
  3.3622826e+002  1.8696200e-021
  3.3633813e+002  2.1283600e-021
  3.3644800e+002  2.2673000e-021
  3.3655788e+002  2.2430200e-021
  3.3666775e+002  2.1801700e-021
  3.3677752e+002  2.1830500e-021
  3.3688729e+002  2.3132700e-021
  3.3699716e+002  2.6552200e-021
  3.3710684e+002  3.1698200e-021
  3.3721661e+002  3.4255700e-021
  3.3732638e+002  3.3422300e-021
  3.3743605e+002  3.1008700e-021
  3.3754572e+002  2.8277100e-021
  3.3765540e+002  2.5470000e-021
  3.3776497e+002  2.2837200e-021
  3.3787464e+002  2.0381100e-021
  3.3798421e+002  1.8167700e-021
  3.3809378e+002  1.6183000e-021
  3.3820336e+002  1.4456000e-021
  3.3831293e+002  1.2996500e-021
  3.3842240e+002  1.1936500e-021
  3.3853197e+002  1.1233100e-021
  3.3864144e+002  1.0908600e-021
  3.3875092e+002  1.0682300e-021
  3.3886029e+002  1.0472900e-021
  3.3896976e+002  1.0179400e-021
  3.3907913e+002  9.9556900e-022
  3.3918850e+002  1.0274200e-021
  3.3929788e+002  1.1255800e-021
  3.3940725e+002  1.2125700e-021
  3.3951652e+002  1.2348900e-021
  3.3962589e+002  1.2150100e-021
  3.3973516e+002  1.2098000e-021
  3.3984444e+002  1.3010000e-021
  3.3995361e+002  1.5500100e-021
  3.4006288e+002  1.8086000e-021
  3.4017205e+002  1.8833700e-021
  3.4028132e+002  1.8056400e-021
  3.4039050e+002  1.6641200e-021
  3.4049957e+002  1.5026100e-021
  3.4060874e+002  1.3429600e-021
  3.4071781e+002  1.1986800e-021
  3.4082698e+002  1.0699100e-021
  3.4093606e+002  9.5614500e-022
  3.4104513e+002  8.6240400e-022
  3.4115410e+002  7.7815800e-022
  3.4126317e+002  7.1090100e-022
  3.4137214e+002  6.5329000e-022
  3.4148112e+002  6.0690300e-022
  3.4159009e+002  5.7073500e-022
  3.4169906e+002  5.4820500e-022
  3.4180803e+002  5.4209800e-022
  3.4191690e+002  5.6163800e-022
  3.4202578e+002  5.8501000e-022
  3.4213465e+002  5.8040400e-022
  3.4224352e+002  5.5555100e-022
  3.4235239e+002  5.2706900e-022
  3.4246116e+002  5.0751100e-022
  3.4257004e+002  5.0761700e-022
  3.4267881e+002  5.4924700e-022
  3.4278758e+002  6.1699700e-022
  3.4289635e+002  6.6706500e-022
  3.4300502e+002  7.0761500e-022
  3.4311380e+002  7.4069700e-022
  3.4322247e+002  7.4354800e-022
  3.4333114e+002  7.2269300e-022
  3.4343981e+002  7.1004400e-022
  3.4354849e+002  7.2308300e-022
  3.4365706e+002  7.8525400e-022
  3.4376573e+002  9.6296800e-022
  3.4387430e+002  1.1852700e-021
  3.4398287e+002  1.2719400e-021
  3.4409145e+002  1.2339000e-021
  3.4420002e+002  1.1409500e-021
  3.4430849e+002  1.0342700e-021
  3.4441706e+002  9.2930500e-022
  3.4452553e+002  8.3340000e-022
  3.4463401e+002  7.3694900e-022
  3.4474248e+002  6.7582400e-022
  3.4485095e+002  6.2294000e-022
  3.4495932e+002  5.7375200e-022
  3.4506770e+002  5.2722800e-022
  3.4517617e+002  4.9706400e-022
  3.4528454e+002  4.7932100e-022
  3.4539291e+002  4.7569400e-022
  3.4550118e+002  4.9554100e-022
  3.4560956e+002  5.2323000e-022
  3.4571783e+002  5.2274100e-022
  3.4582620e+002  4.9631800e-022
  3.4593447e+002  4.5793200e-022
  3.4604274e+002  4.2267000e-022
  3.4615092e+002  3.9619000e-022
  3.4625919e+002  3.8371600e-022
  3.4636736e+002  3.7563900e-022
  3.4647563e+002  3.6255600e-022
  3.4658381e+002  3.4493300e-022
  3.4669198e+002  3.2923700e-022
  3.4680015e+002  3.2017500e-022
  3.4690822e+002  3.3037100e-022
  3.4701639e+002  3.7704400e-022
  3.4712447e+002  4.3861600e-022
  3.4723254e+002  4.5918700e-022
  3.4734061e+002  4.4452900e-022
  3.4744868e+002  4.1446000e-022
  3.4755676e+002  3.7996300e-022
  3.4766483e+002  3.4513900e-022
  3.4777280e+002  3.1257800e-022
  3.4788087e+002  2.8364800e-022
  3.4798884e+002  2.5968500e-022
  3.4809682e+002  2.3842300e-022
  3.4820479e+002  2.1979800e-022
  3.4831266e+002  2.0581000e-022
  3.4842063e+002  2.0005500e-022
  3.4852851e+002  2.0176800e-022
  3.4863648e+002  2.0469800e-022
  3.4874435e+002  2.0050700e-022
  3.4885222e+002  1.9184000e-022
  3.4896000e+002  1.8180700e-022
  3.4906787e+002  1.7514100e-022
  3.4917574e+002  1.7905000e-022
  3.4928351e+002  2.0531300e-022
  3.4939128e+002  2.4224400e-022
  3.4949916e+002  2.5994600e-022
  3.4960693e+002  2.5529700e-022
  3.4971460e+002  2.4122300e-022
  3.4982237e+002  2.2511300e-022
  3.4993015e+002  2.1239700e-022
  3.5003782e+002  2.0805500e-022
  3.5014559e+002  2.0958400e-022
  3.5025326e+002  2.0662900e-022
  3.5036093e+002  1.9859600e-022
  3.5046861e+002  1.8977800e-022
  3.5057618e+002  1.8198000e-022
  3.5068385e+002  1.7506400e-022
  3.5079152e+002  1.6996600e-022
  3.5089910e+002  1.6956400e-022
  3.5100667e+002  1.8130900e-022
  3.5111424e+002  2.1642100e-022
  3.5122181e+002  2.8265100e-022
  3.5132939e+002  3.4238700e-022
  3.5143696e+002  3.6188500e-022
  3.5154453e+002  3.5260400e-022
  3.5165200e+002  3.3162400e-022
  3.5175947e+002  3.0516600e-022
  3.5186705e+002  2.7833700e-022
  3.5197452e+002  2.5300400e-022
  3.5208199e+002  2.3182000e-022
  3.5218936e+002  2.1637300e-022
  3.5229684e+002  2.1000300e-022
  3.5240431e+002  2.1349100e-022
  3.5251168e+002  2.1919500e-022
  3.5261915e+002  2.1586600e-022
  3.5272653e+002  2.0337600e-022
  3.5283390e+002  1.8700900e-022
  3.5294127e+002  1.7097700e-022
  3.5304864e+002  1.5711600e-022
  3.5315602e+002  1.4833500e-022
  3.5326329e+002  1.4366100e-022
  3.5337066e+002  1.3711500e-022
  3.5347793e+002  1.2780200e-022
  3.5358530e+002  1.1767000e-022
  3.5369258e+002  1.0765100e-022
  3.5379985e+002  9.8499000e-023
  3.5390712e+002  9.0351900e-023
  3.5401439e+002  8.3611700e-023
  3.5412157e+002  7.8352900e-023
  3.5422884e+002  7.4925600e-023
  3.5433611e+002  7.3066000e-023
  3.5444328e+002  7.1619600e-023
  3.5455046e+002  7.0644300e-023
  3.5465773e+002  7.1890600e-023
  3.5476490e+002  7.5589700e-023
  3.5487207e+002  8.0021800e-023
  3.5497915e+002  8.2918500e-023
  3.5508632e+002  8.3313100e-023
  3.5519349e+002  8.1763900e-023
  3.5530056e+002  7.7940500e-023
  3.5540774e+002  7.2858700e-023
  3.5551481e+002  6.7955000e-023
  3.5562198e+002  6.4285500e-023
  3.5572905e+002  6.3154100e-023
  3.5583612e+002  6.3832600e-023
  3.5594320e+002  6.2993400e-023
  3.5605027e+002  6.0452700e-023
  3.5615724e+002  5.7455200e-023
  3.5626431e+002  5.5560700e-023
  3.5637129e+002  5.6264200e-023
  3.5647836e+002  6.3746100e-023
  3.5658533e+002  8.0241700e-023
  3.5669240e+002  9.4629700e-023
  3.5679938e+002  9.8572500e-023
  3.5690635e+002  9.5472300e-023
  3.5701332e+002  8.9880300e-023
  3.5712029e+002  8.4115900e-023
  3.5722717e+002  7.9872900e-023
  3.5733414e+002  7.9636300e-023
  3.5744111e+002  8.0973600e-023
  3.5754798e+002  7.9031400e-023
  3.5765496e+002  7.4576500e-023
  3.5776183e+002  6.9526900e-023
  3.5786870e+002  6.5036400e-023
  3.5797557e+002  6.1560600e-023
  3.5808255e+002  5.8552100e-023
  3.5818942e+002  5.5656300e-023
  3.5829619e+002  5.2483300e-023
  3.5840306e+002  4.8885400e-023
  3.5850994e+002  4.5655600e-023
  3.5861681e+002  4.3298000e-023
  3.5872358e+002  4.2235500e-023
  3.5883045e+002  4.2873400e-023
  3.5893723e+002  4.4114000e-023
  3.5904400e+002  4.6315100e-023
  3.5915087e+002  5.1734700e-023
  3.5925764e+002  6.0579300e-023
  3.5936441e+002  6.8942400e-023
  3.5947119e+002  7.2366700e-023
  3.5957796e+002  7.1432700e-023
  3.5968473e+002  6.8227200e-023
  3.5979150e+002  6.4646800e-023
  3.5989818e+002  6.1919500e-023
  3.6000495e+002  6.1757300e-023
  3.6011162e+002  6.3887900e-023
  3.6021839e+002  6.4237800e-023
  3.6032507e+002  6.1622800e-023
  3.6043184e+002  5.7381300e-023
  3.6053851e+002  5.2820300e-023
  3.6064518e+002  4.8481700e-023
  3.6075186e+002  4.5220800e-023
  3.6085853e+002  4.3343100e-023
  3.6096520e+002  4.2130500e-023
  3.6107187e+002  3.9982100e-023
  3.6117855e+002  3.7452200e-023
  3.6128522e+002  3.4922200e-023
  3.6139189e+002  3.2497700e-023
  3.6149846e+002  3.0043300e-023
  3.6160514e+002  2.7486200e-023
  3.6171171e+002  2.5296200e-023
  3.6181838e+002  2.3402400e-023
  3.6192495e+002  2.1921300e-023
  3.6203153e+002  2.1114000e-023
  3.6213820e+002  2.0913700e-023
  3.6224477e+002  2.0979000e-023
  3.6235134e+002  2.0712900e-023
  3.6245792e+002  1.9772000e-023
  3.6256449e+002  1.8592400e-023
  3.6267106e+002  1.7656100e-023
  3.6277763e+002  1.6942600e-023
  3.6288421e+002  1.6822500e-023
  3.6299078e+002  1.6789600e-023
  3.6309725e+002  1.6658400e-023
  3.6320382e+002  1.6279300e-023
  3.6331040e+002  1.5836800e-023
  3.6341687e+002  1.5451300e-023
  3.6352344e+002  1.5161000e-023
  3.6362991e+002  1.4753100e-023
  3.6373649e+002  1.4453700e-023
  3.6384296e+002  1.4134400e-023
  3.6394943e+002  1.3958800e-023
  3.6405590e+002  1.3759400e-023
  3.6416248e+002  1.3797800e-023
  3.6426895e+002  1.4321200e-023
  3.6437542e+002  1.5826000e-023
  3.6448189e+002  1.9506600e-023
  3.6458837e+002  2.5143100e-023
  3.6469484e+002  2.9311700e-023
  3.6480131e+002  3.0474600e-023
  3.6490778e+002  2.9745100e-023
  3.6501426e+002  2.8296900e-023
  3.6512063e+002  2.6734200e-023
  3.6522710e+002  2.5563000e-023
  3.6533357e+002  2.5969200e-023
  3.6543995e+002  2.7163200e-023
  3.6554642e+002  2.8103200e-023
  3.6565289e+002  2.7873600e-023
  3.6575926e+002  2.6641500e-023
  3.6586574e+002  2.4770800e-023
  3.6597211e+002  2.3030200e-023
  3.6607848e+002  2.1237800e-023
  3.6618495e+002  1.9778000e-023
  3.6629133e+002  1.8744500e-023
  3.6639770e+002  1.7714400e-023
  3.6650417e+002  1.6489000e-023
  3.6661054e+002  1.5297900e-023
  3.6671692e+002  1.4121400e-023
  3.6682329e+002  1.3093900e-023
  3.6692966e+002  1.2142000e-023
  3.6703603e+002  1.1248800e-023
  3.6714241e+002  1.0445800e-023
  3.6724878e+002  9.8959500e-024
  3.6735515e+002  9.4038800e-024
  3.6746152e+002  8.9729900e-024
  3.6756790e+002  8.5585800e-024
  3.6767427e+002  8.2506500e-024
  3.6778064e+002  8.1937900e-024
  3.6788701e+002  8.3162200e-024
  3.6799339e+002  8.6450400e-024
  3.6809966e+002  8.9308700e-024
  3.6820603e+002  9.5379100e-024
  3.6831240e+002  1.0673600e-023
  3.6841868e+002  1.1546000e-023
  3.6852505e+002  1.2279200e-023
  3.6863142e+002  1.2521800e-023
  3.6873769e+002  1.2414800e-023
  3.6884407e+002  1.1882700e-023
  3.6895034e+002  1.1310300e-023
  3.6905671e+002  1.0881300e-023
  3.6916298e+002  1.0576800e-023
  3.6926935e+002  1.0326600e-023
  3.6937563e+002  1.0108200e-023
  3.6948200e+002  9.7231100e-024
  3.6958827e+002  9.1662600e-024
  3.6969464e+002  8.7869900e-024
  3.6980092e+002  8.7050800e-024
  3.6990719e+002  8.6846100e-024
  3.7001356e+002  9.1834300e-024
  3.7011983e+002  9.4683600e-024
  3.7022611e+002  9.1696700e-024
  3.7033248e+002  8.7784600e-024
  3.7043875e+002  8.4399400e-024
  3.7054502e+002  8.0487300e-024
  3.7065140e+002  8.0180300e-024
  3.7075767e+002  8.1081300e-024
  3.7086394e+002  8.1549000e-024
  3.7097021e+002  7.8664900e-024
  3.7107649e+002  7.4760700e-024
  3.7118286e+002  7.1108300e-024
  3.7128913e+002  6.8752200e-024
  3.7139540e+002  6.5482900e-024
  3.7150168e+002  6.0910200e-024
  3.7160795e+002  5.8041600e-024
  3.7171422e+002  5.6051600e-024
  3.7182049e+002  5.3305100e-024
  3.7192677e+002  5.1841200e-024
  3.7203314e+002  5.1210800e-024
  3.7213941e+002  4.9349400e-024
  3.7224568e+002  4.7417400e-024
  3.7235196e+002  4.5916400e-024
  3.7245823e+002  4.5238300e-024
  3.7256450e+002  4.4947200e-024
  3.7267077e+002  4.4421800e-024
  3.7277705e+002  4.3699800e-024
  3.7288332e+002  4.6899600e-024
  3.7298959e+002  5.0441000e-024
  3.7309586e+002  5.5910600e-024
  3.7320214e+002  6.3437600e-024
  3.7330841e+002  7.4103500e-024
  3.7341468e+002  8.1505000e-024
  3.7352095e+002  8.3181100e-024
  3.7362723e+002  8.4068500e-024
  3.7373350e+002  8.3484000e-024
  3.7383977e+002  8.3566300e-024
  3.7394604e+002  8.4994100e-024
  3.7405232e+002  8.6455700e-024
  3.7415859e+002  8.7280500e-024
  3.7426486e+002  8.7421500e-024
  3.7437113e+002  8.5704100e-024
  3.7447741e+002  8.5042200e-024
  3.7458368e+002  8.2818800e-024
  3.7468995e+002  8.0380000e-024
  3.7479622e+002  7.7037600e-024
  3.7490250e+002  7.3724400e-024
  3.7500877e+002  7.0779300e-024
  3.7511504e+002  6.7974000e-024
  3.7522131e+002  6.4246100e-024
  3.7532759e+002  6.1377500e-024
  3.7543386e+002  5.7471100e-024
  3.7554013e+002  5.4533900e-024
  3.7564640e+002  5.2805100e-024
  3.7575268e+002  5.1188500e-024
  3.7585905e+002  4.9872100e-024
  3.7596532e+002  4.8069000e-024
  3.7607159e+002  4.7077000e-024
  3.7617786e+002  4.6037700e-024
  3.7628414e+002  4.4262600e-024
  3.7639041e+002  4.4855800e-024
  3.7649668e+002  4.3584500e-024
  3.7660295e+002  4.1390300e-024
  3.7670923e+002  4.0644300e-024
  3.7681550e+002  4.0469200e-024
  3.7692187e+002  4.1135500e-024
  3.7702814e+002  3.9311200e-024
  3.7713442e+002  3.7563100e-024
  3.7724069e+002  3.7159100e-024
  3.7734696e+002  3.5046200e-024
  3.7745323e+002  3.4293800e-024
  3.7755961e+002  3.4486800e-024
  3.7766588e+002  3.3558200e-024
  3.7777215e+002  3.4159400e-024
  3.7787842e+002  3.3726200e-024
  3.7798480e+002  3.3712800e-024
  3.7809107e+002  3.5437100e-024
  3.7819734e+002  3.7005800e-024
  3.7830371e+002  3.6762100e-024
  3.7840999e+002  3.8129700e-024
  3.7851626e+002  4.1279600e-024
  3.7862263e+002  4.3257400e-024
  3.7872890e+002  4.5510400e-024
  3.7883518e+002  4.7583400e-024
  3.7894155e+002  4.7594800e-024
  3.7904782e+002  4.7116400e-024
  3.7915419e+002  4.7963600e-024
  3.7926046e+002  4.8356300e-024
  3.7936684e+002  4.9769700e-024
  3.7947311e+002  5.2456000e-024
  3.7957938e+002  5.3233400e-024
  3.7968575e+002  5.2076600e-024
  3.7979213e+002  5.0233300e-024
  3.7989840e+002  5.0373900e-024
  3.8000477e+002  4.9907700e-024
  3.8011104e+002  4.9941400e-024
  3.8021742e+002  4.9275100e-024
  3.8032379e+002  4.8998800e-024
  3.8043006e+002  4.9153800e-024
  3.8053643e+002  4.8225100e-024
  3.8064281e+002  4.8478000e-024
  3.8074908e+002  4.8679200e-024
  3.8085545e+002  4.6880700e-024
  3.8096182e+002  4.6768100e-024
  3.8106820e+002  4.7583400e-024
  3.8117447e+002  4.6995100e-024
  3.8128084e+002  4.6795800e-024
  3.8138721e+002  4.7649400e-024
  3.8149359e+002  4.7970000e-024
  3.8159996e+002  4.8286200e-024
  3.8170633e+002  4.7287400e-024
  3.8181270e+002  4.7338200e-024
  3.8191907e+002  4.8087200e-024
  3.8202545e+002  4.8534100e-024
  3.8213182e+002  4.8107300e-024
  3.8223819e+002  4.8395300e-024
  3.8234456e+002  4.9463500e-024
  3.8245094e+002  4.9207200e-024
  3.8255731e+002  4.9919800e-024
  3.8266368e+002  5.0553600e-024
  3.8277005e+002  5.1672100e-024
  3.8287643e+002  5.1582700e-024
  3.8298290e+002  5.3632500e-024
  3.8308927e+002  5.4460800e-024
  3.8319564e+002  5.3603400e-024
  3.8330202e+002  5.3118600e-024
  3.8340849e+002  5.1688800e-024
  3.8351486e+002  5.2350600e-024
  3.8362123e+002  5.2214900e-024
  3.8372770e+002  5.0084300e-024
  3.8383408e+002  5.0765500e-024
  3.8394055e+002  5.1556200e-024
  3.8404692e+002  5.2147800e-024
  3.8415329e+002  5.1839300e-024
  3.8425977e+002  5.2073500e-024
  3.8436624e+002  5.1668000e-024
  3.8447261e+002  5.0079800e-024
  3.8457908e+002  5.0461100e-024
  3.8468546e+002  4.9253900e-024
  3.8479193e+002  5.0088900e-024
  3.8489840e+002  4.9281900e-024
  3.8500477e+002  4.7363200e-024
  3.8511124e+002  4.6862900e-024
  3.8521772e+002  4.6239000e-024
  3.8532409e+002  4.6320400e-024
  3.8543056e+002  4.7009200e-024
  3.8553703e+002  4.8460500e-024
  3.8564351e+002  4.7885900e-024
  3.8574998e+002  4.6580100e-024
  3.8585645e+002  4.7389000e-024
  3.8596292e+002  4.8291800e-024
  3.8606940e+002  4.8312700e-024
  3.8617587e+002  4.9450200e-024
  3.8628234e+002  5.0377000e-024
  3.8638881e+002  5.0967500e-024
  3.8649528e+002  5.3153100e-024
  3.8660176e+002  5.2703900e-024
  3.8670823e+002  5.3855000e-024
  3.8681470e+002  5.5115700e-024
  3.8692117e+002  5.4169700e-024
  3.8702765e+002  5.3132600e-024
  3.8713422e+002  5.3254300e-024
  3.8724069e+002  5.4285300e-024
  3.8734716e+002  5.4340200e-024
  3.8745374e+002  5.4258700e-024
  3.8756021e+002  5.4707100e-024
  3.8766668e+002  5.5567600e-024
  3.8777325e+002  5.6289300e-024
  3.8787972e+002  5.7586000e-024
  3.8798630e+002  5.9998600e-024
  3.8809277e+002  6.0769900e-024
  3.8819924e+002  6.1490100e-024
  3.8830581e+002  6.2967200e-024
  3.8841239e+002  6.3945900e-024
  3.8851886e+002  6.3648400e-024
  3.8862543e+002  6.4241200e-024
  3.8873190e+002  6.5100800e-024
  3.8883848e+002  6.6045800e-024
  3.8894505e+002  6.5265700e-024
  3.8905152e+002  6.5576500e-024
  3.8915809e+002  6.6442300e-024
  3.8926466e+002  6.6634800e-024
  3.8937124e+002  6.7274700e-024
  3.8947781e+002  6.8589500e-024
  3.8958428e+002  6.8270800e-024
  3.8969085e+002  6.8429600e-024
  3.8979743e+002  6.8543700e-024
  3.8990400e+002  6.8538000e-024
  3.9001057e+002  6.8560700e-024
  3.9011714e+002  6.8958400e-024
  3.9022371e+002  6.8737800e-024
  3.9033029e+002  6.9014500e-024
  3.9043686e+002  6.8935200e-024
  3.9054343e+002  7.0109100e-024
  3.9065000e+002  7.0100000e-024
  3.9075658e+002  7.0543500e-024
  3.9086315e+002  7.0705400e-024
  3.9096972e+002  7.0094000e-024
  3.9107639e+002  7.0256200e-024
  3.9118296e+002  7.1185600e-024
  3.9128954e+002  7.2118400e-024
  3.9139611e+002  7.1604100e-024
  3.9150268e+002  7.1253100e-024
  3.9160935e+002  7.1365300e-024
  3.9171593e+002  7.2555800e-024
  3.9182250e+002  7.2903800e-024
  3.9192917e+002  7.4422200e-024
  3.9203574e+002  7.4874800e-024
  3.9214231e+002  7.5649600e-024
  3.9224899e+002  7.5718200e-024
  3.9235556e+002  7.6129800e-024
  3.9246223e+002  7.6790100e-024
  3.9256880e+002  7.7311300e-024
  3.9267548e+002  7.8715700e-024
  3.9278205e+002  8.0461100e-024
  3.9288872e+002  8.1100200e-024
  3.9299529e+002  8.2047100e-024
  3.9310196e+002  8.3876700e-024
  3.9320854e+002  8.4240200e-024
  3.9331521e+002  8.5547100e-024
  3.9342188e+002  8.7141000e-024
  3.9352845e+002  8.9585800e-024
  3.9363513e+002  9.1119000e-024
  3.9374170e+002  9.1920700e-024
  3.9384837e+002  9.2862600e-024
  3.9395504e+002  9.5578100e-024
  3.9406161e+002  9.6935400e-024
  3.9416829e+002  9.7786400e-024
  3.9427496e+002  1.0145500e-023
  3.9438163e+002  1.0307500e-023
  3.9448820e+002  1.0533800e-023
  3.9459488e+002  1.0615200e-023
  3.9470155e+002  1.0657800e-023
  3.9480822e+002  1.0771300e-023
  3.9491489e+002  1.0896700e-023
  3.9502146e+002  1.0911700e-023
  3.9512814e+002  1.1004800e-023
  3.9523481e+002  1.1154500e-023
  3.9534148e+002  1.1171900e-023
  3.9544815e+002  1.1204600e-023
  3.9555483e+002  1.1243600e-023
  3.9566140e+002  1.1237900e-023
  3.9576807e+002  1.1183700e-023
  3.9587474e+002  1.1215900e-023
  3.9598141e+002  1.1281200e-023
  3.9608809e+002  1.1225900e-023
  3.9619476e+002  1.1207700e-023
  3.9630143e+002  1.1137700e-023
  3.9640810e+002  1.1294200e-023
  3.9651478e+002  1.1070400e-023
  3.9662145e+002  1.0911900e-023
  3.9672812e+002  1.1112600e-023
  3.9679080e+002  1.1045500e-023
  3.9703874e+002  1.0849400e-023
  3.9728657e+002  1.0751800e-023
  3.9753431e+002  1.0436500e-023
  3.9778214e+002  1.0339800e-023
  3.9802978e+002  1.0552300e-023
  3.9827752e+002  1.0500000e-023
  3.9852505e+002  1.0621500e-023
  3.9877269e+002  1.0886800e-023
  3.9902022e+002  1.0964300e-023
  3.9926766e+002  1.1338400e-023
  3.9951509e+002  1.1367200e-023
  3.9976253e+002  1.1633100e-023
  4.0000986e+002  1.2014100e-023
  4.0025720e+002  1.2315100e-023
  4.0050443e+002  1.2746000e-023
  4.0075167e+002  1.3151100e-023
  4.0099881e+002  1.3769400e-023
  4.0124594e+002  1.4038900e-023
  4.0149308e+002  1.4497600e-023
  4.0174011e+002  1.4960700e-023
  4.0198705e+002  1.5283500e-023
  4.0223398e+002  1.5422700e-023
  4.0248092e+002  1.5639200e-023
  4.0272775e+002  1.5834300e-023
  4.0297459e+002  1.6067600e-023
  4.0322143e+002  1.6149400e-023
  4.0346806e+002  1.6069400e-023
  4.0371480e+002  1.6071300e-023
  4.0396143e+002  1.5987500e-023
  4.0420807e+002  1.5852200e-023
  4.0445460e+002  1.5845400e-023
  4.0470104e+002  1.5926800e-023
  4.0494757e+002  1.6018500e-023
  4.0519391e+002  1.6159700e-023
  4.0544035e+002  1.6333200e-023
  4.0568668e+002  1.6757700e-023
  4.0593292e+002  1.7146600e-023
  4.0617915e+002  1.7588000e-023
  4.0642539e+002  1.8222700e-023
  4.0667152e+002  1.8979100e-023
  4.0691756e+002  1.9782100e-023
  4.0716370e+002  2.0700500e-023
  4.0740973e+002  2.1638100e-023
  4.0765567e+002  2.2726800e-023
  4.0790160e+002  2.3881700e-023
  4.0814744e+002  2.4736500e-023
  4.0839327e+002  2.5556600e-023
  4.0863911e+002  2.6206500e-023
  4.0888485e+002  2.6856100e-023
  4.0913058e+002  2.7419700e-023
  4.0937622e+002  2.7892100e-023
  4.0962185e+002  2.8239300e-023
  4.0986739e+002  2.8559500e-023
  4.1011292e+002  2.8877000e-023
  4.1035846e+002  2.8952200e-023
  4.1060390e+002  2.9121200e-023
  4.1084923e+002  2.8989500e-023
  4.1109457e+002  2.8799800e-023
  4.1133990e+002  2.8467700e-023
  4.1158514e+002  2.7977900e-023
  4.1183037e+002  2.7619900e-023
  4.1207561e+002  2.7282300e-023
  4.1232075e+002  2.6872700e-023
  4.1256578e+002  2.6573600e-023
  4.1281082e+002  2.6341300e-023
  4.1305585e+002  2.6113700e-023
  4.1330079e+002  2.6060400e-023
  4.1354573e+002  2.6134400e-023
  4.1379056e+002  2.6508000e-023
  4.1403540e+002  2.6685100e-023
  4.1428023e+002  2.7274900e-023
  4.1452497e+002  2.7937000e-023
  4.1476961e+002  2.8718200e-023
  4.1501434e+002  2.9660100e-023
  4.1525888e+002  3.0694900e-023
  4.1550351e+002  3.1616100e-023
  4.1574805e+002  3.2798200e-023
  4.1599248e+002  3.3736400e-023
  4.1623692e+002  3.4713700e-023
  4.1648136e+002  3.5737700e-023
  4.1672569e+002  3.6557500e-023
  4.1696993e+002  3.7300300e-023
  4.1721426e+002  3.7562800e-023
  4.1745850e+002  3.8039900e-023
  4.1770264e+002  3.8291600e-023
  4.1794677e+002  3.8399200e-023
  4.1819081e+002  3.8243100e-023
  4.1843495e+002  3.8091800e-023
  4.1867888e+002  3.8011800e-023
  4.1892292e+002  3.7686000e-023
  4.1916675e+002  3.7457700e-023
  4.1941069e+002  3.7309700e-023
  4.1965453e+002  3.7154800e-023
  4.1989826e+002  3.7346300e-023
  4.2014200e+002  3.7645400e-023
  4.2038573e+002  3.8144500e-023
  4.2062937e+002  3.8717200e-023
  4.2087301e+002  3.9840000e-023
  4.2111664e+002  4.1093500e-023
  4.2136018e+002  4.2462600e-023
  4.2160361e+002  4.3870700e-023
  4.2184705e+002  4.5621100e-023
  4.2209049e+002  4.7580400e-023
  4.2233382e+002  4.9496400e-023
  4.2257716e+002  5.1591800e-023
  4.2282050e+002  5.3698500e-023
  4.2306373e+002  5.5844300e-023
  4.2330687e+002  5.8039300e-023
  4.2355010e+002  6.0232000e-023
  4.2379314e+002  6.2377000e-023
  4.2403628e+002  6.4508000e-023
  4.2427931e+002  6.6510100e-023
  4.2452225e+002  6.8170300e-023
  4.2476519e+002  6.9675100e-023
  4.2500812e+002  7.0552600e-023
  4.2525096e+002  7.1591900e-023
  4.2549379e+002  7.1988400e-023
  4.2573663e+002  7.2423200e-023
  4.2597937e+002  7.2341700e-023
  4.2622200e+002  7.2289800e-023
  4.2646474e+002  7.1806100e-023
  4.2670728e+002  7.1298200e-023
  4.2694991e+002  7.0451800e-023
  4.2719245e+002  6.9705800e-023
  4.2743488e+002  6.8669100e-023
  4.2767732e+002  6.7624500e-023
  4.2791976e+002  6.6474500e-023
  4.2816209e+002  6.5551900e-023
  4.2840443e+002  6.4622500e-023
  4.2864677e+002  6.3862900e-023
  4.2888900e+002  6.3207200e-023
  4.2913124e+002  6.2858100e-023
  4.2937338e+002  6.2836800e-023
  4.2961551e+002  6.3069900e-023
  4.2985755e+002  6.3657800e-023
  4.3009959e+002  6.4597900e-023
  4.3034162e+002  6.5634900e-023
  4.3058356e+002  6.7218900e-023
  4.3082549e+002  6.9129300e-023
  4.3106743e+002  7.1120800e-023
  4.3130927e+002  7.3179400e-023
  4.3155100e+002  7.5541200e-023
  4.3179284e+002  7.7745300e-023
  4.3203448e+002  7.9924000e-023
  4.3227621e+002  8.1886300e-023
  4.3251785e+002  8.3402100e-023
  4.3275949e+002  8.4977800e-023
  4.3300102e+002  8.6025100e-023
  4.3324256e+002  8.6771400e-023
  4.3348400e+002  8.7381700e-023
  4.3372543e+002  8.7664100e-023
  4.3396687e+002  8.7514400e-023
  4.3420821e+002  8.7313800e-023
  4.3444954e+002  8.6934000e-023
  4.3469088e+002  8.6645200e-023
  4.3493212e+002  8.6111100e-023
  4.3517335e+002  8.5720700e-023
  4.3541449e+002  8.5382200e-023
  4.3565563e+002  8.5528600e-023
  4.3589666e+002  8.5453900e-023
  4.3613780e+002  8.5813600e-023
  4.3637873e+002  8.6672500e-023
  4.3661977e+002  8.7643600e-023
  4.3686071e+002  8.8994100e-023
  4.3710154e+002  9.1086100e-023
  4.3734248e+002  9.3145000e-023
  4.3758322e+002  9.5788500e-023
  4.3782405e+002  9.9008000e-023
  4.3806479e+002  1.0262800e-022
  4.3830553e+002  1.0635400e-022
  4.3854616e+002  1.1033100e-022
  4.3878680e+002  1.1459100e-022
  4.3902744e+002  1.1918200e-022
  4.3926798e+002  1.2376700e-022
  4.3950851e+002  1.2855600e-022
  4.3974895e+002  1.3350800e-022
  4.3998939e+002  1.3819200e-022
  4.4022982e+002  1.4286200e-022
  4.4047016e+002  1.4755700e-022
  4.4071050e+002  1.5205200e-022
  4.4095083e+002  1.5650400e-022
  4.4119107e+002  1.6065800e-022
  4.4143131e+002  1.6416400e-022
  4.4167144e+002  1.6771900e-022
  4.4191158e+002  1.7089300e-022
  4.4215172e+002  1.7340600e-022
  4.4239175e+002  1.7557600e-022
  4.4263179e+002  1.7697000e-022
  4.4287183e+002  1.7769800e-022
  4.4311176e+002  1.7806100e-022
  4.4335170e+002  1.7767200e-022
  4.4359154e+002  1.7665800e-022
  4.4383147e+002  1.7511500e-022
  4.4407121e+002  1.7296700e-022
  4.4431105e+002  1.7063900e-022
  4.4455078e+002  1.6782400e-022
  4.4479052e+002  1.6507500e-022
  4.4503016e+002  1.6229700e-022
  4.4526980e+002  1.5933300e-022
  4.4550943e+002  1.5658400e-022
  4.4574897e+002  1.5417900e-022
  4.4598851e+002  1.5197800e-022
  4.4622794e+002  1.5048400e-022
  4.4646748e+002  1.4939500e-022
  4.4670692e+002  1.4865900e-022
  4.4694625e+002  1.4873200e-022
  4.4718559e+002  1.4933900e-022
  4.4742493e+002  1.5049000e-022
  4.4766426e+002  1.5260400e-022
  4.4790350e+002  1.5517900e-022
  4.4814264e+002  1.5825600e-022
  4.4838188e+002  1.6206200e-022
  4.4862101e+002  1.6615300e-022
  4.4886015e+002  1.7043500e-022
  4.4909919e+002  1.7483200e-022
  4.4933822e+002  1.7918200e-022
  4.4957726e+002  1.8346200e-022
  4.4981620e+002  1.8816400e-022
  4.5005513e+002  1.9381700e-022
  4.5029407e+002  1.9788900e-022
  4.5053291e+002  1.9932600e-022
  4.5077175e+002  1.9936800e-022
  4.5101058e+002  1.9958900e-022
  4.5124932e+002  1.9954700e-022
  4.5148806e+002  1.9968800e-022
  4.5172679e+002  1.9917100e-022
  4.5196543e+002  1.9886700e-022
  4.5220407e+002  1.9888200e-022
  4.5244271e+002  1.9929000e-022
  4.5268134e+002  1.9870100e-022
  4.5291988e+002  1.9707800e-022
  4.5315832e+002  1.9568200e-022
  4.5339685e+002  1.9473200e-022
  4.5363529e+002  1.9461000e-022
  4.5387363e+002  1.9515700e-022
  4.5411207e+002  1.9601100e-022
  4.5435040e+002  1.9790500e-022
  4.5458874e+002  2.0068900e-022
  4.5482698e+002  2.0390600e-022
  4.5506521e+002  2.0795400e-022
  4.5530345e+002  2.1267300e-022
  4.5554159e+002  2.1795600e-022
  4.5577983e+002  2.2393400e-022
  4.5601786e+002  2.3043100e-022
  4.5625600e+002  2.3788300e-022
  4.5649404e+002  2.4584500e-022
  4.5673207e+002  2.5401900e-022
  4.5697011e+002  2.6262000e-022
  4.5720805e+002  2.7154600e-022
  4.5744599e+002  2.8043600e-022
  4.5768392e+002  2.8974600e-022
  4.5792176e+002  2.9873900e-022
  4.5815960e+002  3.0839900e-022
  4.5839743e+002  3.1775400e-022
  4.5863517e+002  3.2712100e-022
  4.5887291e+002  3.3635400e-022
  4.5911065e+002  3.4573400e-022
  4.5934838e+002  3.5473100e-022
  4.5958602e+002  3.6390000e-022
  4.5982366e+002  3.7244400e-022
  4.6006120e+002  3.8082700e-022
  4.6029883e+002  3.8832900e-022
  4.6053637e+002  3.9536700e-022
  4.6077391e+002  4.0137100e-022
  4.6101134e+002  4.0650400e-022
  4.6124878e+002  4.1025600e-022
  4.6148622e+002  4.1304200e-022
  4.6172366e+002  4.1436500e-022
  4.6196099e+002  4.1474800e-022
  4.6219833e+002  4.1355800e-022
  4.6243567e+002  4.1148000e-022
  4.6267291e+002  4.0846700e-022
  4.6291014e+002  4.0455900e-022
  4.6314738e+002  3.9973400e-022
  4.6338462e+002  3.9438200e-022
  4.6362176e+002  3.8832500e-022
  4.6385889e+002  3.8229800e-022
  4.6409603e+002  3.7594000e-022
  4.6433307e+002  3.7003700e-022
  4.6457010e+002  3.6420300e-022
  4.6480714e+002  3.5905000e-022
  4.6504418e+002  3.5423700e-022
  4.6528112e+002  3.5036600e-022
  4.6551805e+002  3.4723100e-022
  4.6575499e+002  3.4511100e-022
  4.6599183e+002  3.4407000e-022
  4.6622877e+002  3.4414000e-022
  4.6646560e+002  3.4530800e-022
  4.6670234e+002  3.4779100e-022
  4.6693918e+002  3.5135700e-022
  4.6717592e+002  3.5649800e-022
  4.6741265e+002  3.6221800e-022
  4.6764929e+002  3.6871700e-022
  4.6788603e+002  3.7543400e-022
  4.6812267e+002  3.8187300e-022
  4.6835930e+002  3.8843800e-022
  4.6859584e+002  3.9475000e-022
  4.6883248e+002  4.0076500e-022
  4.6906902e+002  4.0648800e-022
  4.6930555e+002  4.1133600e-022
  4.6954199e+002  4.1611200e-022
  4.6977853e+002  4.1991000e-022
  4.7001497e+002  4.2283700e-022
  4.7025140e+002  4.2533100e-022
  4.7048774e+002  4.2721100e-022
  4.7072408e+002  4.2831000e-022
  4.7096042e+002  4.2874600e-022
  4.7119675e+002  4.2895800e-022
  4.7143309e+002  4.2875000e-022
  4.7166933e+002  4.2832100e-022
  4.7190557e+002  4.2795000e-022
  4.7214180e+002  4.2763100e-022
  4.7237804e+002  4.2768400e-022
  4.7261418e+002  4.2765000e-022
  4.7285032e+002  4.2846500e-022
  4.7308645e+002  4.2978400e-022
  4.7332259e+002  4.3221000e-022
  4.7355863e+002  4.3495800e-022
  4.7379467e+002  4.3735800e-022
  4.7403070e+002  4.4047000e-022
  4.7426674e+002  4.4510500e-022
  4.7450278e+002  4.5068900e-022
  4.7473872e+002  4.5741300e-022
  4.7497465e+002  4.6541800e-022
  4.7521059e+002  4.7424200e-022
  4.7544643e+002  4.8415000e-022
  4.7568237e+002  4.9509300e-022
  4.7591820e+002  5.0672600e-022
  4.7615404e+002  5.1904900e-022
  4.7638978e+002  5.3235700e-022
  4.7662562e+002  5.4586200e-022
  4.7686136e+002  5.6008800e-022
  4.7709709e+002  5.7464700e-022
  4.7733283e+002  5.8942500e-022
  4.7756857e+002  6.0485200e-022
  4.7780421e+002  6.2049900e-022
  4.7803984e+002  6.3646500e-022
  4.7827548e+002  6.5237700e-022
  4.7851112e+002  6.6899800e-022
  4.7874666e+002  6.8531600e-022
  4.7898229e+002  7.0192500e-022
  4.7921783e+002  7.1812500e-022
  4.7945337e+002  7.3491300e-022
  4.7968891e+002  7.5122700e-022
  4.7992434e+002  7.6715100e-022
  4.8015978e+002  7.8273700e-022
  4.8039532e+002  7.9771300e-022
  4.8063066e+002  8.1167700e-022
  4.8086610e+002  8.2475400e-022
  4.8110153e+002  8.3634100e-022
  4.8133687e+002  8.4661300e-022
  4.8157221e+002  8.5498600e-022
  4.8180755e+002  8.6188100e-022
  4.8204288e+002  8.6701300e-022
  4.8227812e+002  8.7046600e-022
  4.8251346e+002  8.7233500e-022
  4.8274870e+002  8.7235800e-022
  4.8298393e+002  8.7106500e-022
  4.8321917e+002  8.6837800e-022
  4.8345431e+002  8.6422300e-022
  4.8368955e+002  8.5900000e-022
  4.8392469e+002  8.5254100e-022
  4.8415982e+002  8.4536200e-022
  4.8439496e+002  8.3745900e-022
  4.8463010e+002  8.2940100e-022
  4.8486514e+002  8.2097100e-022
  4.8510027e+002  8.1250700e-022
  4.8533531e+002  8.0411500e-022
  4.8557035e+002  7.9646200e-022
  4.8580539e+002  7.8884700e-022
  4.8604042e+002  7.8208100e-022
  4.8627536e+002  7.7596300e-022
  4.8651030e+002  7.7095600e-022
  4.8674534e+002  7.6718500e-022
  4.8698028e+002  7.6441000e-022
  4.8721511e+002  7.6285600e-022
  4.8745005e+002  7.6292100e-022
  4.8768499e+002  7.6410300e-022
  4.8791983e+002  7.6667300e-022
  4.8815466e+002  7.7025100e-022
  4.8838950e+002  7.7507600e-022
  4.8862434e+002  7.8097100e-022
  4.8885918e+002  7.8766400e-022
  4.8909392e+002  7.9480900e-022
  4.8932875e+002  8.0253400e-022
  4.8956349e+002  8.1029300e-022
  4.8979823e+002  8.1855300e-022
  4.9003297e+002  8.2652400e-022
  4.9026770e+002  8.3611700e-022
  4.9050244e+002  8.3864900e-022
  4.9073708e+002  8.4582500e-022
  4.9097182e+002  8.5550200e-022
  4.9120646e+002  8.5922800e-022
  4.9144109e+002  8.6771100e-022
  4.9167573e+002  8.6904900e-022
  4.9191037e+002  8.7127700e-022
  4.9214501e+002  8.7589400e-022
  4.9237954e+002  8.7829000e-022
  4.9261418e+002  8.8319800e-022
  4.9284872e+002  8.8070800e-022
  4.9308326e+002  8.8269000e-022
  4.9331780e+002  8.8796300e-022
  4.9355233e+002  8.8679900e-022
  4.9378687e+002  8.8807300e-022
  4.9402131e+002  8.9099500e-022
  4.9425585e+002  8.9246600e-022
  4.9449028e+002  8.9932600e-022
  4.9472472e+002  9.0085800e-022
  4.9495926e+002  9.0533000e-022
  4.9519370e+002  9.1055000e-022
  4.9542814e+002  9.1723200e-022
  4.9566247e+002  9.2275900e-022
  4.9589691e+002  9.2771700e-022
  4.9613135e+002  9.3640800e-022
  4.9636569e+002  9.4897700e-022
  4.9660003e+002  9.5876000e-022
  4.9683446e+002  9.7015400e-022
  4.9706880e+002  9.8477000e-022
  4.9730314e+002  1.0001100e-021
  4.9753748e+002  1.0136200e-021
  4.9777171e+002  1.0351800e-021
  4.9800605e+002  1.0474800e-021
  4.9824039e+002  1.0650600e-021
  4.9847463e+002  1.0860500e-021
  4.9870887e+002  1.1044600e-021
  4.9894320e+002  1.1288000e-021
  4.9917744e+002  1.1465100e-021
  4.9941168e+002  1.1671800e-021
  4.9964592e+002  1.1877500e-021
  4.9988015e+002  1.2144300e-021
  5.0011439e+002  1.2409800e-021
  5.0034853e+002  1.2612500e-021
  5.0058277e+002  1.2894500e-021
  5.0081691e+002  1.3101200e-021
  5.0105114e+002  1.3285200e-021
  5.0128528e+002  1.3569600e-021
  5.0151942e+002  1.3833500e-021
  5.0175366e+002  1.4081300e-021
  5.0198780e+002  1.4317900e-021
  5.0222193e+002  1.4588100e-021
  5.0245607e+002  1.4766600e-021
  5.0269021e+002  1.5004400e-021
  5.0292425e+002  1.5213100e-021
  5.0315838e+002  1.5445400e-021
  5.0339252e+002  1.5626100e-021
  5.0362656e+002  1.5836700e-021
  5.0386070e+002  1.5989600e-021
  5.0409474e+002  1.6146400e-021
  5.0432877e+002  1.6307400e-021
  5.0456291e+002  1.6402700e-021
  5.0479695e+002  1.6533300e-021
  5.0503099e+002  1.6612300e-021
  5.0526503e+002  1.6675200e-021
  5.0549906e+002  1.6760200e-021
  5.0573310e+002  1.6786600e-021
  5.0596714e+002  1.6809300e-021
  5.0620118e+002  1.6861800e-021
  5.0643521e+002  1.6800800e-021
  5.0666915e+002  1.6778600e-021
  5.0690319e+002  1.6748500e-021
  5.0713723e+002  1.6734100e-021
  5.0737117e+002  1.6660800e-021
  5.0760520e+002  1.6613300e-021
  5.0783914e+002  1.6585100e-021
  5.0807308e+002  1.6482100e-021
  5.0830712e+002  1.6409200e-021
  5.0854106e+002  1.6321100e-021
  5.0877499e+002  1.6243800e-021
  5.0900903e+002  1.6222600e-021
  5.0924297e+002  1.6156000e-021
  5.0947691e+002  1.6042200e-021
  5.0971084e+002  1.6031300e-021
  5.0994478e+002  1.5983900e-021
  5.1017872e+002  1.5939000e-021
  5.1041266e+002  1.5908800e-021
  5.1064660e+002  1.5855400e-021
  5.1088053e+002  1.5901400e-021
  5.1111447e+002  1.5864200e-021
  5.1134841e+002  1.5914200e-021
  5.1158235e+002  1.5910400e-021
  5.1181618e+002  1.5993400e-021
  5.1205012e+002  1.6016800e-021
  5.1228406e+002  1.6068600e-021
  5.1251800e+002  1.6136300e-021
  5.1275184e+002  1.6206400e-021
  5.1298577e+002  1.6230500e-021
  5.1321971e+002  1.6352700e-021
  5.1345365e+002  1.6406200e-021
  5.1368749e+002  1.6522400e-021
  5.1392143e+002  1.6612100e-021
  5.1415526e+002  1.6700400e-021
  5.1438920e+002  1.6810500e-021
  5.1462314e+002  1.6863200e-021
  5.1485698e+002  1.6951600e-021
  5.1509091e+002  1.7094100e-021
  5.1532475e+002  1.7132900e-021
  5.1555869e+002  1.7229000e-021
  5.1579253e+002  1.7311000e-021
  5.1602647e+002  1.7386500e-021
  5.1626040e+002  1.7450800e-021
  5.1649424e+002  1.7484600e-021
  5.1672818e+002  1.7598800e-021
  5.1696202e+002  1.7673100e-021
  5.1719595e+002  1.7743900e-021
  5.1742979e+002  1.7854900e-021
  5.1766373e+002  1.7863800e-021
  5.1789757e+002  1.7897300e-021
  5.1813151e+002  1.7994800e-021
  5.1836544e+002  1.8074800e-021
  5.1859928e+002  1.8158700e-021
  5.1883322e+002  1.8163800e-021
  5.1906716e+002  1.8284000e-021
  5.1930099e+002  1.8379400e-021
  5.1953493e+002  1.8452900e-021
  5.1976887e+002  1.8568700e-021
  5.2000271e+002  1.8641800e-021
  5.2023665e+002  1.8727600e-021
  5.2047058e+002  1.8842400e-021
  5.2070442e+002  1.8937500e-021
  5.2093836e+002  1.9094000e-021
  5.2117230e+002  1.9155100e-021
  5.2140623e+002  1.9311300e-021
  5.2164017e+002  1.9488600e-021
  5.2187411e+002  1.9633200e-021
  5.2210805e+002  1.9779400e-021
  5.2234199e+002  1.9981700e-021
  5.2257592e+002  2.0106900e-021
  5.2280986e+002  2.0279400e-021
  5.2304380e+002  2.0474900e-021
  5.2327774e+002  2.0661700e-021
  5.2351167e+002  2.0901400e-021
  5.2374561e+002  2.1115000e-021
  5.2397955e+002  2.1278000e-021
  5.2421359e+002  2.1518600e-021
  5.2444753e+002  2.1735500e-021
  5.2468146e+002  2.1975000e-021
  5.2491550e+002  2.2190500e-021
  5.2514944e+002  2.2397900e-021
  5.2538348e+002  2.2651400e-021
  5.2561741e+002  2.2914300e-021
  5.2585145e+002  2.3166100e-021
  5.2608549e+002  2.3374100e-021
  5.2631943e+002  2.3626200e-021
  5.2655347e+002  2.3881500e-021
  5.2678750e+002  2.4113700e-021
  5.2702154e+002  2.4307700e-021
  5.2725558e+002  2.4596200e-021
  5.2748962e+002  2.4830500e-021
  5.2772365e+002  2.5132300e-021
  5.2795769e+002  2.5327500e-021
  5.2819173e+002  2.5512600e-021
  5.2842577e+002  2.5737500e-021
  5.2865990e+002  2.5987000e-021
  5.2889394e+002  2.6194800e-021
  5.2912808e+002  2.6416900e-021
  5.2936212e+002  2.6633700e-021
  5.2959626e+002  2.6857500e-021
  5.2983029e+002  2.7045900e-021
  5.3006443e+002  2.7280600e-021
  5.3029857e+002  2.7486400e-021
  5.3053271e+002  2.7704400e-021
  5.3076684e+002  2.7797800e-021
  5.3100098e+002  2.8016600e-021
  5.3123512e+002  2.8129500e-021
  5.3146926e+002  2.8219500e-021
  5.3170349e+002  2.8408600e-021
  5.3193763e+002  2.8526900e-021
  5.3217187e+002  2.8601800e-021
  5.3240601e+002  2.8747500e-021
  5.3264024e+002  2.8797100e-021
  5.3287448e+002  2.8898400e-021
  5.3310872e+002  2.8963500e-021
  5.3334296e+002  2.9024800e-021
  5.3357720e+002  2.9052400e-021
  5.3381143e+002  2.9053800e-021
  5.3404567e+002  2.9065600e-021
  5.3427991e+002  2.9131200e-021
  5.3451425e+002  2.9141400e-021
  5.3474848e+002  2.9165200e-021
  5.3498282e+002  2.9101900e-021
  5.3521716e+002  2.9094200e-021
  5.3545150e+002  2.9090300e-021
  5.3568583e+002  2.9083000e-021
  5.3592017e+002  2.9062200e-021
  5.3615451e+002  2.9072900e-021
  5.3638885e+002  2.9045000e-021
  5.3662328e+002  2.9056000e-021
  5.3685762e+002  2.9095000e-021
  5.3709206e+002  2.9100200e-021
  5.3732640e+002  2.9104100e-021
  5.3756083e+002  2.9130900e-021
  5.3779527e+002  2.9091400e-021
  5.3802971e+002  2.9160400e-021
  5.3826425e+002  2.9219700e-021
  5.3849868e+002  2.9263400e-021
  5.3873312e+002  2.9270400e-021
  5.3896766e+002  2.9395200e-021
  5.3920220e+002  2.9479000e-021
  5.3943663e+002  2.9534600e-021
  5.3967117e+002  2.9630100e-021
  5.3990571e+002  2.9736600e-021
  5.4014035e+002  2.9907000e-021
  5.4037488e+002  2.9974800e-021
  5.4060952e+002  3.0070800e-021
  5.4084406e+002  3.0245600e-021
  5.4107870e+002  3.0361900e-021
  5.4131333e+002  3.0553100e-021
  5.4154797e+002  3.0652100e-021
  5.4178261e+002  3.0831200e-021
  5.4201725e+002  3.0994300e-021
  5.4225198e+002  3.1069400e-021
  5.4248662e+002  3.1180900e-021
  5.4272136e+002  3.1379800e-021
  5.4295610e+002  3.1519700e-021
  5.4319083e+002  3.1686100e-021
  5.4342557e+002  3.1745800e-021
  5.4366031e+002  3.1894200e-021
  5.4389515e+002  3.2076400e-021
  5.4412988e+002  3.2151700e-021
  5.4436472e+002  3.2260500e-021
  5.4459956e+002  3.2444900e-021
  5.4483440e+002  3.2442700e-021
  5.4506923e+002  3.2585300e-021
  5.4530417e+002  3.2674400e-021
  5.4553901e+002  3.2830500e-021
  5.4577394e+002  3.2869400e-021
  5.4600888e+002  3.3019800e-021
  5.4624382e+002  3.3088100e-021
  5.4647876e+002  3.3180500e-021
  5.4671369e+002  3.3229600e-021
  5.4694873e+002  3.3352700e-021
  5.4718377e+002  3.3388000e-021
  5.4741871e+002  3.3518000e-021
  5.4765374e+002  3.3611900e-021
  5.4788888e+002  3.3666700e-021
  5.4812392e+002  3.3708700e-021
  5.4835896e+002  3.3796500e-021
  5.4859409e+002  3.3907700e-021
  5.4882923e+002  3.3900200e-021
  5.4906437e+002  3.3981500e-021
  5.4929950e+002  3.4063100e-021
  5.4953474e+002  3.4151000e-021
  5.4976988e+002  3.4248800e-021
  5.5000512e+002  3.4288600e-021
  5.5024035e+002  3.4385400e-021
  5.5047559e+002  3.4459800e-021
  5.5071083e+002  3.4536000e-021
  5.5094617e+002  3.4580800e-021
  5.5118150e+002  3.4636900e-021
  5.5141674e+002  3.4735100e-021
  5.5165208e+002  3.4837900e-021
  5.5188751e+002  3.4937100e-021
  5.5212285e+002  3.5020900e-021
  5.5235829e+002  3.5130600e-021
  5.5259373e+002  3.5197700e-021
  5.5282916e+002  3.5265800e-021
  5.5306460e+002  3.5395000e-021
  5.5330004e+002  3.5438100e-021
  5.5353557e+002  3.5556500e-021
  5.5377111e+002  3.5675800e-021
  5.5400665e+002  3.5772900e-021
  5.5424219e+002  3.5876600e-021
  5.5447772e+002  3.5999900e-021
  5.5471336e+002  3.6149300e-021
  5.5494900e+002  3.6249600e-021
  5.5518463e+002  3.6390400e-021
  5.5542027e+002  3.6533900e-021
  5.5565591e+002  3.6657900e-021
  5.5589165e+002  3.6839600e-021
  5.5612738e+002  3.6991300e-021
  5.5636312e+002  3.7143300e-021
  5.5659886e+002  3.7275600e-021
  5.5683469e+002  3.7449800e-021
  5.5707043e+002  3.7649600e-021
  5.5730627e+002  3.7849800e-021
  5.5754211e+002  3.8021700e-021
  5.5777804e+002  3.8265400e-021
  5.5801388e+002  3.8453400e-021
  5.5824982e+002  3.8711600e-021
  5.5848575e+002  3.8943500e-021
  5.5872169e+002  3.9131500e-021
  5.5895773e+002  3.9349100e-021
  5.5919366e+002  3.9509400e-021
  5.5942970e+002  3.9768300e-021
  5.5966574e+002  4.0058300e-021
  5.5990188e+002  4.0226200e-021
  5.6013791e+002  4.0478300e-021
  5.6037405e+002  4.0726200e-021
  5.6061019e+002  4.1026700e-021
  5.6084632e+002  4.1245500e-021
  5.6108256e+002  4.1495200e-021
  5.6131880e+002  4.1797000e-021
  5.6155503e+002  4.1988800e-021
  5.6179127e+002  4.2113800e-021
  5.6202751e+002  4.2406800e-021
  5.6226384e+002  4.2658100e-021
  5.6250018e+002  4.2888600e-021
  5.6273652e+002  4.3084600e-021
  5.6297286e+002  4.3290800e-021
  5.6320929e+002  4.3485600e-021
  5.6344573e+002  4.3663400e-021
  5.6368217e+002  4.3915400e-021
  5.6391870e+002  4.4134100e-021
  5.6415514e+002  4.4226200e-021
  5.6439168e+002  4.4373700e-021
  5.6462821e+002  4.4595100e-021
  5.6486475e+002  4.4737600e-021
  5.6510139e+002  4.4863400e-021
  5.6533802e+002  4.5027500e-021
  5.6557466e+002  4.5218600e-021
  5.6581130e+002  4.5344000e-021
  5.6604803e+002  4.5472200e-021
  5.6628477e+002  4.5616200e-021
  5.6652151e+002  4.5776500e-021
  5.6675824e+002  4.5882700e-021
  5.6699508e+002  4.5979700e-021
  5.6723192e+002  4.6158200e-021
  5.6746875e+002  4.6288600e-021
  5.6770569e+002  4.6459200e-021
  5.6794253e+002  4.6563400e-021
  5.6817946e+002  4.6658900e-021
  5.6841650e+002  4.6825700e-021
  5.6865344e+002  4.6957200e-021
  5.6889047e+002  4.7059200e-021
  5.6912751e+002  4.7199100e-021
  5.6936455e+002  4.7379900e-021
  5.6960168e+002  4.7493200e-021
  5.6983872e+002  4.7568600e-021
  5.7007596e+002  4.7742200e-021
  5.7031309e+002  4.7897300e-021
  5.7055033e+002  4.8076600e-021
  5.7078747e+002  4.8171700e-021
  5.7102480e+002  4.8288400e-021
  5.7126204e+002  4.8410500e-021
  5.7149938e+002  4.8482900e-021
  5.7173671e+002  4.8654600e-021
  5.7197405e+002  4.8804700e-021
  5.7221149e+002  4.8817600e-021
  5.7244892e+002  4.8879700e-021
  5.7268636e+002  4.8938500e-021
  5.7292380e+002  4.9003700e-021
  5.7316133e+002  4.9100700e-021
  5.7339887e+002  4.9136000e-021
  5.7363641e+002  4.9219000e-021
  5.7387404e+002  4.9214100e-021
  5.7411168e+002  4.9234900e-021
  5.7434932e+002  4.9203800e-021
  5.7458695e+002  4.9216300e-021
  5.7482469e+002  4.9169000e-021
  5.7506242e+002  4.9136700e-021
  5.7530016e+002  4.9102600e-021
  5.7553800e+002  4.9061300e-021
  5.7577583e+002  4.9084800e-021
  5.7601367e+002  4.9021100e-021
  5.7625151e+002  4.8951000e-021
  5.7648944e+002  4.8848300e-021
  5.7672738e+002  4.8745200e-021
  5.7696532e+002  4.8649700e-021
  5.7720335e+002  4.8558700e-021
  5.7744139e+002  4.8483300e-021
  5.7767943e+002  4.8456000e-021
  5.7791756e+002  4.8288400e-021
  5.7815570e+002  4.8128500e-021
  5.7839383e+002  4.8034100e-021
  5.7863197e+002  4.7955300e-021
  5.7887021e+002  4.7808600e-021
  5.7910844e+002  4.7671400e-021
  5.7934668e+002  4.7610700e-021
  5.7958502e+002  4.7492100e-021
  5.7982335e+002  4.7389700e-021
  5.8006169e+002  4.7307500e-021
  5.8030012e+002  4.7185000e-021
  5.8053856e+002  4.7096300e-021
  5.8077700e+002  4.6948500e-021
  5.8101553e+002  4.6865100e-021
  5.8125397e+002  4.6814000e-021
  5.8149261e+002  4.6676700e-021
  5.8173114e+002  4.6545200e-021
  5.8196978e+002  4.6502400e-021
  5.8220841e+002  4.6393200e-021
  5.8244705e+002  4.6294700e-021
  5.8268579e+002  4.6185900e-021
  5.8292452e+002  4.6122200e-021
  5.8316326e+002  4.6041500e-021
  5.8340209e+002  4.5946000e-021
  5.8364093e+002  4.5819000e-021
  5.8387977e+002  4.5803100e-021
  5.8411870e+002  4.5702200e-021
  5.8435764e+002  4.5684000e-021
  5.8459658e+002  4.5657500e-021
  5.8483561e+002  4.5522900e-021
  5.8507465e+002  4.5464600e-021
  5.8531368e+002  4.5387600e-021
  5.8555282e+002  4.5460000e-021
  5.8579196e+002  4.5415300e-021
  5.8603109e+002  4.5389100e-021
  5.8627023e+002  4.5337200e-021
  5.8650946e+002  4.5314100e-021
  5.8674880e+002  4.5328900e-021
  5.8698804e+002  4.5278100e-021
  5.8722737e+002  4.5262200e-021
  5.8746671e+002  4.5305400e-021
  5.8770614e+002  4.5319000e-021
  5.8794558e+002  4.5256100e-021
  5.8818502e+002  4.5354700e-021
  5.8842445e+002  4.5321300e-021
  5.8866399e+002  4.5226500e-021
  5.8890362e+002  4.5314900e-021
  5.8914316e+002  4.5343700e-021
  5.8938279e+002  4.5322100e-021
  5.8962243e+002  4.5474000e-021
  5.8986217e+002  4.5513100e-021
  5.9010190e+002  4.5558600e-021
  5.9034164e+002  4.5608600e-021
  5.9058147e+002  4.5734800e-021
  5.9082131e+002  4.5796600e-021
  5.9106115e+002  4.5882300e-021
  5.9130098e+002  4.6058500e-021
  5.9154092e+002  4.6159400e-021
  5.9178095e+002  4.6234800e-021
  5.9202089e+002  4.6346600e-021
  5.9226092e+002  4.6530100e-021
  5.9250106e+002  4.6633900e-021
  5.9274110e+002  4.6814000e-021
  5.9298123e+002  4.6970100e-021
  5.9322147e+002  4.7108500e-021
  5.9346160e+002  4.7331700e-021
  5.9370194e+002  4.7533400e-021
  5.9394217e+002  4.7711500e-021
  5.9418251e+002  4.7870700e-021
  5.9442285e+002  4.8136100e-021
  5.9466318e+002  4.8358600e-021
  5.9490362e+002  4.8527200e-021
  5.9514405e+002  4.8628800e-021
  5.9538459e+002  4.8862700e-021
  5.9562512e+002  4.9146600e-021
  5.9586566e+002  4.9342900e-021
  5.9610630e+002  4.9540800e-021
  5.9634683e+002  4.9804200e-021
  5.9658757e+002  4.9927800e-021
  5.9682820e+002  5.0168500e-021
  5.9706894e+002  5.0417100e-021
  5.9730977e+002  5.0523300e-021
  5.9755061e+002  5.0735200e-021
  5.9779144e+002  5.0941400e-021
  5.9803228e+002  5.1124800e-021
  5.9827322e+002  5.1299900e-021
  5.9851415e+002  5.1510700e-021
  5.9875519e+002  5.1690000e-021
  5.9899612e+002  5.1872300e-021
  5.9923726e+002  5.2068600e-021
  5.9947829e+002  5.2164100e-021
  5.9955937e+002  5.2348000e-021
  5.9978311e+002  5.2522700e-021
  6.0000695e+002  5.2695200e-021
  6.0023059e+002  5.2815300e-021
  6.0045423e+002  5.2887700e-021
  6.0067787e+002  5.2928700e-021
  6.0090141e+002  5.3031800e-021
  6.0112485e+002  5.3093600e-021
  6.0134829e+002  5.3157600e-021
  6.0157173e+002  5.3263000e-021
  6.0179507e+002  5.3292900e-021
  6.0201831e+002  5.3309200e-021
  6.0224155e+002  5.3311500e-021
  6.0246479e+002  5.3321000e-021
  6.0268793e+002  5.3295200e-021
  6.0291097e+002  5.3239500e-021
  6.0313401e+002  5.3190600e-021
  6.0335695e+002  5.3172000e-021
  6.0357989e+002  5.3142400e-021
  6.0380283e+002  5.3019300e-021
  6.0402567e+002  5.3002200e-021
  6.0424841e+002  5.2919200e-021
  6.0447116e+002  5.2860100e-021
  6.0469380e+002  5.2709200e-021
  6.0491644e+002  5.2696700e-021
  6.0513908e+002  5.2564800e-021
  6.0536152e+002  5.2395400e-021
  6.0558406e+002  5.2238400e-021
  6.0580650e+002  5.2171300e-021
  6.0602884e+002  5.2052300e-021
  6.0625118e+002  5.1902200e-021
  6.0647342e+002  5.1686500e-021
  6.0669566e+002  5.1509200e-021
  6.0691790e+002  5.1360600e-021
  6.0713994e+002  5.1307900e-021
  6.0736208e+002  5.1077800e-021
  6.0758412e+002  5.0837900e-021
  6.0780606e+002  5.0639600e-021
  6.0802800e+002  5.0483500e-021
  6.0824984e+002  5.0296600e-021
  6.0847168e+002  5.0168100e-021
  6.0869352e+002  4.9903900e-021
  6.0891526e+002  4.9740500e-021
  6.0913691e+002  4.9563200e-021
  6.0935855e+002  4.9352800e-021
  6.0958019e+002  4.9148900e-021
  6.0980173e+002  4.8982500e-021
  6.1002317e+002  4.8757700e-021
  6.1024461e+002  4.8538200e-021
  6.1046605e+002  4.8386200e-021
  6.1068739e+002  4.8200900e-021
  6.1090863e+002  4.7930200e-021
  6.1112987e+002  4.7837400e-021
  6.1135111e+002  4.7584900e-021
  6.1157225e+002  4.7348000e-021
  6.1179339e+002  4.7114900e-021
  6.1201443e+002  4.6947000e-021
  6.1223547e+002  4.6755200e-021
  6.1245642e+002  4.6622900e-021
  6.1267736e+002  4.6465600e-021
  6.1289820e+002  4.6191200e-021
  6.1311904e+002  4.6022900e-021
  6.1333978e+002  4.5837200e-021
  6.1356052e+002  4.5701500e-021
  6.1378116e+002  4.5474800e-021
  6.1400180e+002  4.5355000e-021
  6.1422244e+002  4.5133700e-021
  6.1444288e+002  4.4948300e-021
  6.1466342e+002  4.4748200e-021
  6.1488386e+002  4.4627600e-021
  6.1510431e+002  4.4471900e-021
  6.1532465e+002  4.4301700e-021
  6.1554489e+002  4.4122800e-021
  6.1576513e+002  4.3964300e-021
  6.1598537e+002  4.3821000e-021
  6.1620551e+002  4.3727800e-021
  6.1642565e+002  4.3484100e-021
  6.1664569e+002  4.3369200e-021
  6.1686573e+002  4.3261600e-021
  6.1708577e+002  4.3086800e-021
  6.1730572e+002  4.2955700e-021
  6.1752556e+002  4.2887100e-021
  6.1774540e+002  4.2679800e-021
  6.1796514e+002  4.2552800e-021
  6.1818498e+002  4.2411800e-021
  6.1840462e+002  4.2264300e-021
  6.1862426e+002  4.2154800e-021
  6.1884390e+002  4.2046800e-021
  6.1906344e+002  4.1912200e-021
  6.1928299e+002  4.1736300e-021
  6.1950253e+002  4.1624100e-021
  6.1972187e+002  4.1548700e-021
  6.1994131e+002  4.1477800e-021
  6.2016065e+002  4.1310300e-021
  6.2037989e+002  4.1142700e-021
  6.2059923e+002  4.1129100e-021
  6.2081837e+002  4.1039300e-021
  6.2103752e+002  4.0887300e-021
  6.2125666e+002  4.0763700e-021
  6.2147570e+002  4.0649600e-021
  6.2169474e+002  4.0523800e-021
  6.2191378e+002  4.0438900e-021
  6.2213272e+002  4.0334600e-021
  6.2235156e+002  4.0265300e-021
  6.2257040e+002  4.0194400e-021
  6.2278925e+002  4.0118900e-021
  6.2300799e+002  3.9995000e-021
  6.2322673e+002  3.9866500e-021
  6.2344537e+002  3.9666000e-021
  6.2366401e+002  3.9568600e-021
  6.2388265e+002  3.9513200e-021
  6.2410119e+002  3.9396500e-021
  6.2431963e+002  3.9319900e-021
  6.2453818e+002  3.9206200e-021
  6.2475652e+002  3.9140600e-021
  6.2497496e+002  3.9041700e-021
  6.2519330e+002  3.8848400e-021
  6.2541154e+002  3.8766100e-021
  6.2562978e+002  3.8666100e-021
  6.2584802e+002  3.8576600e-021
  6.2606617e+002  3.8425800e-021
  6.2628421e+002  3.8312100e-021
  6.2650235e+002  3.8232100e-021
  6.2672039e+002  3.8120300e-021
  6.2693833e+002  3.8046300e-021
  6.2715627e+002  3.7942500e-021
  6.2737422e+002  3.7748800e-021
  6.2759206e+002  3.7639300e-021
  6.2780990e+002  3.7538800e-021
  6.2802764e+002  3.7372100e-021
  6.2824538e+002  3.7253000e-021
  6.2846302e+002  3.7153300e-021
  6.2868067e+002  3.7054000e-021
  6.2889831e+002  3.6921400e-021
  6.2911585e+002  3.6772900e-021
  6.2933339e+002  3.6679600e-021
  6.2955083e+002  3.6524800e-021
  6.2976827e+002  3.6405300e-021
  6.2998571e+002  3.6356400e-021
  6.3020306e+002  3.6226300e-021
  6.3042040e+002  3.6127500e-021
  6.3063764e+002  3.6027200e-021
  6.3085488e+002  3.5915900e-021
  6.3107202e+002  3.5729500e-021
  6.3128927e+002  3.5661500e-021
  6.3150631e+002  3.5521900e-021
  6.3172335e+002  3.5475600e-021
  6.3194039e+002  3.5315600e-021
  6.3215743e+002  3.5178100e-021
  6.3237437e+002  3.5028600e-021
  6.3259122e+002  3.4917900e-021
  6.3280816e+002  3.4794100e-021
  6.3302500e+002  3.4710000e-021
  6.3324174e+002  3.4563800e-021
  6.3345848e+002  3.4445900e-021
  6.3367522e+002  3.4288700e-021
  6.3389187e+002  3.4201100e-021
  6.3410851e+002  3.4155100e-021
  6.3432505e+002  3.4000300e-021
  6.3454159e+002  3.3869400e-021
  6.3475813e+002  3.3716400e-021
  6.3497458e+002  3.3571300e-021
  6.3519102e+002  3.3478000e-021
  6.3540736e+002  3.3393300e-021
  6.3562370e+002  3.3230200e-021
  6.3584004e+002  3.3098300e-021
  6.3605629e+002  3.2972600e-021
  6.3627253e+002  3.2819400e-021
  6.3648877e+002  3.2719900e-021
  6.3670491e+002  3.2535300e-021
  6.3692095e+002  3.2391300e-021
  6.3713710e+002  3.2226400e-021
  6.3735314e+002  3.2072900e-021
  6.3756908e+002  3.1971700e-021
  6.3778502e+002  3.1857100e-021
  6.3800096e+002  3.1736300e-021
  6.3821691e+002  3.1666800e-021
  6.3843275e+002  3.1498400e-021
  6.3864849e+002  3.1382700e-021
  6.3886423e+002  3.1245200e-021
  6.3907997e+002  3.1107900e-021
  6.3929572e+002  3.1011100e-021
  6.3951136e+002  3.0821400e-021
  6.3972690e+002  3.0658400e-021
  6.3994254e+002  3.0542700e-021
  6.4015808e+002  3.0458900e-021
  6.4037353e+002  3.0327200e-021
  6.4058907e+002  3.0120500e-021
  6.4080441e+002  3.0043300e-021
  6.4101985e+002  2.9886400e-021
  6.4123520e+002  2.9772300e-021
  6.4145054e+002  2.9631600e-021
  6.4166578e+002  2.9538200e-021
  6.4188102e+002  2.9345100e-021
  6.4209626e+002  2.9258900e-021
  6.4231141e+002  2.9172400e-021
  6.4252655e+002  2.9069600e-021
  6.4274159e+002  2.8946900e-021
  6.4295663e+002  2.8873400e-021
  6.4317168e+002  2.8705300e-021
  6.4338662e+002  2.8632300e-021
  6.4360156e+002  2.8548600e-021
  6.4381650e+002  2.8393400e-021
  6.4403134e+002  2.8279600e-021
  6.4424619e+002  2.8199100e-021
  6.4446103e+002  2.8132600e-021
  6.4467577e+002  2.8030100e-021
  6.4489051e+002  2.7950000e-021
  6.4510516e+002  2.7763700e-021
  6.4531990e+002  2.7668400e-021
  6.4553444e+002  2.7597300e-021
  6.4574908e+002  2.7520800e-021
  6.4596363e+002  2.7390200e-021
  6.4617817e+002  2.7377900e-021
  6.4639261e+002  2.7226400e-021
  6.4660705e+002  2.7110900e-021
  6.4682150e+002  2.6969300e-021
  6.4703584e+002  2.6868500e-021
  6.4725018e+002  2.6773300e-021
  6.4746442e+002  2.6721400e-021
  6.4767877e+002  2.6588700e-021
  6.4789301e+002  2.6448900e-021
  6.4810715e+002  2.6425300e-021
  6.4832129e+002  2.6333200e-021
  6.4853544e+002  2.6213900e-021
  6.4874958e+002  2.6118400e-021
  6.4896362e+002  2.5991500e-021
  6.4917766e+002  2.5937100e-021
  6.4939161e+002  2.5917300e-021
  6.4960555e+002  2.5739700e-021
  6.4981949e+002  2.5680700e-021
  6.5003343e+002  2.5613900e-021
  6.5024728e+002  2.5440700e-021
  6.5046102e+002  2.5411200e-021
  6.5067486e+002  2.5287000e-021
  6.5088860e+002  2.5255500e-021
  6.5110235e+002  2.5217000e-021
  6.5131599e+002  2.5063800e-021
  6.5152963e+002  2.5022300e-021
  6.5174327e+002  2.4880600e-021
  6.5195682e+002  2.4814200e-021
  6.5217046e+002  2.4801200e-021
  6.5238390e+002  2.4719300e-021
  6.5259744e+002  2.4584100e-021
  6.5281089e+002  2.4525200e-021
  6.5302433e+002  2.4415100e-021
  6.5323767e+002  2.4295000e-021
  6.5345102e+002  2.4203200e-021
  6.5366436e+002  2.4106800e-021
  6.5387760e+002  2.4045400e-021
  6.5409094e+002  2.3882800e-021
  6.5430409e+002  2.3795200e-021
  6.5451733e+002  2.3753000e-021
  6.5473047e+002  2.3716900e-021
  6.5494361e+002  2.3660500e-021
  6.5515666e+002  2.3554200e-021
  6.5536980e+002  2.3493100e-021
  6.5558284e+002  2.3380500e-021
  6.5579579e+002  2.3193800e-021
  6.5600873e+002  2.3067700e-021
  6.5622167e+002  2.3056000e-021
  6.5643461e+002  2.2929000e-021
  6.5664746e+002  2.2992200e-021
  6.5686030e+002  2.2849700e-021
  6.5707314e+002  2.2757900e-021
  6.5728588e+002  2.2684600e-021
  6.5749863e+002  2.2515100e-021
  6.5771137e+002  2.2464800e-021
  6.5792411e+002  2.2360700e-021
  6.5813676e+002  2.2223100e-021
  6.5834930e+002  2.2236100e-021
  6.5856194e+002  2.2128000e-021
  6.5877448e+002  2.2108600e-021
  6.5898703e+002  2.1964300e-021
  6.5919957e+002  2.1911800e-021
  6.5941201e+002  2.1810700e-021
  6.5962446e+002  2.1709100e-021
  6.5983690e+002  2.1621700e-021
  6.6004924e+002  2.1579200e-021
  6.6026159e+002  2.1380600e-021
  6.6047393e+002  2.1390500e-021
  6.6068617e+002  2.1263500e-021
  6.6089841e+002  2.1178600e-021
  6.6111066e+002  2.1167800e-021
  6.6132290e+002  2.1042500e-021
  6.6153504e+002  2.1008200e-021
  6.6174719e+002  2.1006500e-021
  6.6195933e+002  2.0978900e-021
  6.6217137e+002  2.0796800e-021
  6.6238341e+002  2.0645400e-021
  6.6259546e+002  2.0576200e-021
  6.6280750e+002  2.0557100e-021
  6.6301944e+002  2.0469300e-021
  6.6323139e+002  2.0421200e-021
  6.6344333e+002  2.0354700e-021
  6.6365517e+002  2.0182700e-021
  6.6386702e+002  2.0106200e-021
  6.6407886e+002  1.9963500e-021
  6.6429060e+002  1.9965500e-021
  6.6450235e+002  1.9885200e-021
  6.6471409e+002  1.9817300e-021
  6.6492583e+002  1.9707600e-021
  6.6513747e+002  1.9543400e-021
  6.6534912e+002  1.9526100e-021
  6.6556076e+002  1.9401500e-021
  6.6577240e+002  1.9268800e-021
  6.6598395e+002  1.9242700e-021
  6.6619549e+002  1.9142500e-021
  6.6640703e+002  1.8979700e-021
  6.6661848e+002  1.8937100e-021
  6.6682992e+002  1.8924600e-021
  6.6704136e+002  1.8726800e-021
  6.6725281e+002  1.8658200e-021
  6.6746415e+002  1.8505100e-021
  6.6767549e+002  1.8488200e-021
  6.6788684e+002  1.8366700e-021
  6.6809808e+002  1.8278500e-021
  6.6830942e+002  1.8274300e-021
  6.6852067e+002  1.8139600e-021
  6.6873181e+002  1.8081700e-021
  6.6894305e+002  1.7911100e-021
  6.6915419e+002  1.7915700e-021
  6.6936534e+002  1.7833700e-021
  6.6957638e+002  1.7668600e-021
  6.6978752e+002  1.7608600e-021
  6.6999857e+002  1.7535900e-021
  6.7020961e+002  1.7447900e-021
  6.7042055e+002  1.7386900e-021
  6.7063160e+002  1.7274300e-021
  6.7084254e+002  1.7150300e-021
  6.7105338e+002  1.7144300e-021
  6.7126433e+002  1.6959400e-021
  6.7147517e+002  1.6919000e-021
  6.7168601e+002  1.6830300e-021
  6.7189686e+002  1.6785000e-021
  6.7210770e+002  1.6739200e-021
  6.7231844e+002  1.6679700e-021
  6.7252919e+002  1.6621500e-021
  6.7273993e+002  1.6524600e-021
  6.7295057e+002  1.6337100e-021
  6.7316122e+002  1.6268600e-021
  6.7337186e+002  1.6202300e-021
  6.7358250e+002  1.6150500e-021
  6.7379315e+002  1.6034500e-021
  6.7400369e+002  1.5972500e-021
  6.7421423e+002  1.5966200e-021
  6.7442478e+002  1.5844000e-021
  6.7463522e+002  1.5725200e-021
  6.7484566e+002  1.5710600e-021
  6.7505611e+002  1.5595800e-021
  6.7526655e+002  1.5616500e-021
  6.7547699e+002  1.5515600e-021
  6.7568734e+002  1.5430500e-021
  6.7589768e+002  1.5414500e-021
  6.7610802e+002  1.5329000e-021
  6.7631827e+002  1.5190000e-021
  6.7652861e+002  1.5058400e-021
  6.7673886e+002  1.5022200e-021
  6.7694910e+002  1.5001100e-021
  6.7715924e+002  1.4999700e-021
  6.7736949e+002  1.4941000e-021
  6.7757963e+002  1.4850500e-021
  6.7778977e+002  1.4798100e-021
  6.7799992e+002  1.4754800e-021
  6.7820996e+002  1.4619700e-021
  6.7842000e+002  1.4598600e-021
  6.7863005e+002  1.4473600e-021
  6.7884009e+002  1.4462100e-021
  6.7905013e+002  1.4405900e-021
  6.7926008e+002  1.4319400e-021
  6.7947002e+002  1.4279200e-021
  6.7967996e+002  1.4196300e-021
  6.7988991e+002  1.4214600e-021
  6.8009975e+002  1.4149100e-021
  6.8030959e+002  1.4056700e-021
  6.8051944e+002  1.4036400e-021
  6.8072928e+002  1.3979500e-021
  6.8093913e+002  1.3880600e-021
  6.8114887e+002  1.3790800e-021
  6.8135861e+002  1.3862100e-021
  6.8156836e+002  1.3841900e-021
  6.8177810e+002  1.3713700e-021
  6.8198774e+002  1.3711800e-021
  6.8219749e+002  1.3614500e-021
  6.8240713e+002  1.3655600e-021
  6.8261667e+002  1.3599200e-021
  6.8282632e+002  1.3493600e-021
  6.8303586e+002  1.3514700e-021
  6.8324550e+002  1.3550100e-021
  6.8345505e+002  1.3550000e-021
  6.8366449e+002  1.3511100e-021
  6.8387404e+002  1.3391700e-021
  6.8408348e+002  1.3323300e-021
  6.8429302e+002  1.3329300e-021
  6.8450237e+002  1.3272900e-021
  6.8471181e+002  1.3171400e-021
  6.8492125e+002  1.3088900e-021
  6.8513060e+002  1.3093800e-021
  6.8533994e+002  1.3111100e-021
  6.8554928e+002  1.2997500e-021
  6.8575863e+002  1.2957100e-021
  6.8596787e+002  1.2865900e-021
  6.8617722e+002  1.2845100e-021
  6.8638646e+002  1.2862000e-021
  6.8659570e+002  1.2763600e-021
  6.8680495e+002  1.2596900e-021
  6.8701409e+002  1.2589400e-021
  6.8722323e+002  1.2509100e-021
  6.8743248e+002  1.2416100e-021
  6.8764162e+002  1.2410400e-021
  6.8785067e+002  1.2369200e-021
  6.8805981e+002  1.2326100e-021
  6.8826885e+002  1.2187300e-021
  6.8847800e+002  1.2149500e-021
  6.8868704e+002  1.2076400e-021
  6.8889598e+002  1.2033000e-021
  6.8910503e+002  1.1982400e-021
  6.8931407e+002  1.1912000e-021
  6.8952302e+002  1.1826600e-021
  6.8973196e+002  1.1821800e-021
  6.8994090e+002  1.1708200e-021
  6.9014985e+002  1.1616300e-021
  6.9035869e+002  1.1522100e-021
  6.9056753e+002  1.1449700e-021
  6.9077648e+002  1.1419400e-021
  6.9098532e+002  1.1500300e-021
  6.9119407e+002  1.1393900e-021
  6.9140291e+002  1.1268900e-021
  6.9161175e+002  1.1104900e-021
  6.9182050e+002  1.1089300e-021
  6.9202924e+002  1.1077800e-021
  6.9223798e+002  1.1058200e-021
  6.9244673e+002  1.0937300e-021
  6.9265537e+002  1.0861500e-021
  6.9286412e+002  1.0729600e-021
  6.9307276e+002  1.0758600e-021
  6.9328140e+002  1.0632100e-021
  6.9349005e+002  1.0591100e-021
  6.9369869e+002  1.0629300e-021
  6.9390724e+002  1.0566700e-021
  6.9411588e+002  1.0406700e-021
  6.9432442e+002  1.0396100e-021
  6.9453297e+002  1.0361600e-021
  6.9474151e+002  1.0215500e-021
  6.9495005e+002  1.0195800e-021
  6.9515850e+002  1.0168500e-021
  6.9536704e+002  1.0132400e-021
  6.9557549e+002  1.0032600e-021
  6.9578393e+002  1.0019300e-021
  6.9599237e+002  9.9453400e-022
  6.9620082e+002  9.9061100e-022
  6.9640926e+002  9.8165800e-022
  6.9661761e+002  9.7759500e-022
  6.9682595e+002  9.7941000e-022
  6.9703439e+002  9.6714800e-022
  6.9724274e+002  9.6181900e-022
  6.9745108e+002  9.6680000e-022
  6.9765933e+002  9.5345000e-022
  6.9786767e+002  9.4522500e-022
  6.9807591e+002  9.4543700e-022
  6.9828426e+002  9.4018300e-022
  6.9849250e+002  9.3360700e-022
  6.9870075e+002  9.3349700e-022
  6.9890889e+002  9.2326300e-022
  6.9911713e+002  9.1851400e-022
  6.9932538e+002  9.1280500e-022
  6.9953352e+002  9.1341900e-022
  6.9974167e+002  9.0033800e-022
  6.9994981e+002  8.9787900e-022
  7.0015795e+002  8.9793900e-022
  7.0036610e+002  8.8892600e-022
  7.0057424e+002  8.9174200e-022
  7.0078228e+002  8.8735600e-022
  7.0099043e+002  8.8485800e-022
  7.0119847e+002  8.7186500e-022
  7.0140652e+002  8.6895000e-022
  7.0161456e+002  8.6248700e-022
  7.0182260e+002  8.6509500e-022
  7.0203065e+002  8.5115000e-022
  7.0223869e+002  8.4903900e-022
  7.0244664e+002  8.5391000e-022
  7.0265458e+002  8.5141600e-022
  7.0286262e+002  8.4152600e-022
  7.0307057e+002  8.3534000e-022
  7.0327851e+002  8.3251300e-022
  7.0348636e+002  8.2681900e-022
  7.0369430e+002  8.2607300e-022
  7.0390224e+002  8.2426500e-022
  7.0411009e+002  8.2943100e-022
  7.0431793e+002  8.1577000e-022
  7.0452588e+002  8.1094500e-022
  7.0473372e+002  8.0822000e-022
  7.0494156e+002  8.1049800e-022
  7.0514941e+002  8.1500900e-022
  7.0535715e+002  8.1066500e-022
  7.0556500e+002  8.0892500e-022
  7.0577274e+002  8.1084700e-022
  7.0598059e+002  8.0498700e-022
  7.0618833e+002  7.9903600e-022
  7.0639607e+002  7.9151200e-022
  7.0660382e+002  8.0019200e-022
  7.0681156e+002  7.9947900e-022
  7.0701931e+002  7.8750100e-022
  7.0722705e+002  7.8489700e-022
  7.0743469e+002  7.8265700e-022
  7.0764244e+002  7.7826800e-022
  7.0785008e+002  7.6041500e-022
  7.0805773e+002  7.6599500e-022
  7.0826537e+002  7.6648400e-022
  7.0847301e+002  7.5780000e-022
  7.0868066e+002  7.5567300e-022
  7.0888830e+002  7.6534300e-022
  7.0909595e+002  7.6027900e-022
  7.0930349e+002  7.6491100e-022
  7.0951113e+002  7.5945600e-022
  7.0971868e+002  7.5447200e-022
  7.0992632e+002  7.4229300e-022
  7.1013387e+002  7.4919900e-022
  7.1034141e+002  7.4317300e-022
  7.1054895e+002  7.4605300e-022
  7.1075650e+002  7.4635600e-022
  7.1096404e+002  7.3414400e-022
  7.1117149e+002  7.3780900e-022
  7.1137903e+002  7.4187600e-022
  7.1158658e+002  7.3148300e-022
  7.1179402e+002  7.2840900e-022
  7.1200146e+002  7.3277500e-022
  7.1220901e+002  7.2550900e-022
  7.1241645e+002  7.2632400e-022
  7.1262390e+002  7.1868600e-022
  7.1283134e+002  7.2688900e-022
  7.1303878e+002  7.3268800e-022
  7.1324623e+002  7.3090300e-022
  7.1345357e+002  7.3174100e-022
  7.1366102e+002  7.2162800e-022
  7.1386846e+002  7.3284000e-022
  7.1407580e+002  7.3417800e-022
  7.1428315e+002  7.2423600e-022
  7.1449059e+002  7.2152200e-022
  7.1469794e+002  7.2726000e-022
  7.1490528e+002  7.1107500e-022
  7.1511263e+002  7.0662100e-022
  7.1531997e+002  7.1348600e-022
  7.1552731e+002  7.1984600e-022
  7.1573466e+002  7.0788000e-022
  7.1594200e+002  7.1301200e-022
  7.1614935e+002  7.0601500e-022
  7.1635659e+002  6.9991600e-022
  7.1656393e+002  7.0040100e-022
  7.1677118e+002  6.9599300e-022
  7.1697852e+002  6.9009100e-022
  7.1718577e+002  6.8904200e-022
  7.1739301e+002  7.0109100e-022
  7.1760026e+002  6.7773100e-022
  7.1780760e+002  6.7088200e-022
  7.1801484e+002  6.6894800e-022
  7.1822209e+002  6.6502500e-022
  7.1842933e+002  6.6095800e-022
  7.1863658e+002  6.5660300e-022
  7.1884372e+002  6.5193000e-022
  7.1905096e+002  6.4730100e-022
  7.1925821e+002  6.4268100e-022
  7.1946535e+002  6.3842000e-022
  7.1967260e+002  6.3362600e-022
  7.1987984e+002  6.2919800e-022
  7.2008699e+002  6.2466500e-022
  7.2029413e+002  6.2039700e-022
  7.2050137e+002  6.1555300e-022
  7.2070852e+002  6.1142500e-022
  7.2091566e+002  6.0716800e-022
  7.2112291e+002  6.0281300e-022
  7.2133005e+002  5.9834800e-022
  7.2153719e+002  5.9439100e-022
  7.2174434e+002  5.9088500e-022
  7.2195148e+002  5.8753000e-022
  7.2215863e+002  5.8347800e-022
  7.2236577e+002  5.8032500e-022
  7.2257282e+002  5.7666700e-022
  7.2277996e+002  5.7349800e-022
  7.2298710e+002  5.6996500e-022
  7.2319425e+002  5.6738000e-022
  7.2340129e+002  5.6436700e-022
  7.2360844e+002  5.6165300e-022
  7.2381558e+002  5.5850700e-022
  7.2402262e+002  5.5625900e-022
  7.2422977e+002  5.5333700e-022
  7.2443681e+002  5.5120700e-022
  7.2464396e+002  5.4849700e-022
  7.2485100e+002  5.4615000e-022
  7.2505805e+002  5.4358400e-022
  7.2526519e+002  5.4099900e-022
  7.2547223e+002  5.3847100e-022
  7.2567928e+002  5.3609400e-022
  7.2588632e+002  5.3348300e-022
  7.2609347e+002  5.3083700e-022
  7.2630051e+002  5.2800900e-022
  7.2650755e+002  5.2529500e-022
  7.2671460e+002  5.2213400e-022
  7.2692164e+002  5.1953800e-022
  7.2712869e+002  5.1606200e-022
  7.2733573e+002  5.1361700e-022
  7.2754278e+002  5.1073600e-022
  7.2774982e+002  5.0762100e-022
  7.2795686e+002  5.0446700e-022
  7.2816391e+002  5.0154800e-022
  7.2837095e+002  4.9842900e-022
  7.2857800e+002  4.9549500e-022
  7.2878504e+002  4.9244000e-022
  7.2899199e+002  4.8973400e-022
  7.2919903e+002  4.8666300e-022
  7.2940607e+002  4.8432500e-022
  7.2961312e+002  4.8174700e-022
  7.2982016e+002  4.7924600e-022
  7.3002711e+002  4.7685400e-022
  7.3023415e+002  4.7440100e-022
  7.3044119e+002  4.7169500e-022
  7.3064824e+002  4.6994400e-022
  7.3085518e+002  4.6749900e-022
  7.3106223e+002  4.6557400e-022
  7.3126927e+002  4.6316700e-022
  7.3147622e+002  4.6117300e-022
  7.3168326e+002  4.5913400e-022
  7.3189030e+002  4.5747000e-022
  7.3209725e+002  4.5556300e-022
  7.3230429e+002  4.5436900e-022
  7.3251134e+002  4.5270900e-022
  7.3271828e+002  4.5140500e-022
  7.3292532e+002  4.5026800e-022
  7.3313237e+002  4.4908100e-022
  7.3333931e+002  4.4761800e-022
  7.3354636e+002  4.4708400e-022
  7.3375340e+002  4.4557100e-022
  7.3396035e+002  4.4493500e-022
  7.3416739e+002  4.4430500e-022
  7.3437443e+002  4.4396400e-022
  7.3458138e+002  4.4344100e-022
  7.3478842e+002  4.4297900e-022
  7.3499547e+002  4.4241000e-022
  7.3520241e+002  4.4235700e-022
  7.3540946e+002  4.4171700e-022
  7.3561650e+002  4.4117100e-022
  7.3582354e+002  4.4050700e-022
  7.3603049e+002  4.4037100e-022
  7.3623753e+002  4.3998800e-022
  7.3644458e+002  4.3950300e-022
  7.3665162e+002  4.3859700e-022
  7.3685856e+002  4.3836600e-022
  7.3706561e+002  4.3779700e-022
  7.3727265e+002  4.3762700e-022
  7.3747970e+002  4.3680000e-022
  7.3768674e+002  4.3663400e-022
  7.3789379e+002  4.3614100e-022
  7.3810073e+002  4.3579600e-022
  7.3830777e+002  4.3478000e-022
  7.3851482e+002  4.3434800e-022
  7.3872186e+002  4.3417400e-022
  7.3892891e+002  4.3412400e-022
  7.3913595e+002  4.3373400e-022
  7.3934299e+002  4.3365100e-022
  7.3955004e+002  4.3337800e-022
  7.3975718e+002  4.3347600e-022
  7.3996423e+002  4.3340000e-022
  7.4017127e+002  4.3384000e-022
  7.4037832e+002  4.3362800e-022
  7.4058536e+002  4.3370700e-022
  7.4079240e+002  4.3384000e-022
  7.4099955e+002  4.3444700e-022
  7.4120659e+002  4.3496600e-022
  7.4141364e+002  4.3557200e-022
  7.4162078e+002  4.3596700e-022
  7.4182782e+002  4.3697500e-022
  7.4203497e+002  4.3732700e-022
  7.4224201e+002  4.3811900e-022
  7.4244916e+002  4.3900600e-022
  7.4265620e+002  4.4011700e-022
  7.4286335e+002  4.4100400e-022
  7.4307049e+002  4.4234600e-022
  7.4327753e+002  4.4333900e-022
  7.4348468e+002  4.4476800e-022
  7.4369182e+002  4.4607200e-022
  7.4389897e+002  4.4795600e-022
  7.4410611e+002  4.4883100e-022
  7.4431325e+002  4.5049500e-022
  7.4452040e+002  4.5176100e-022
  7.4472754e+002  4.5312600e-022
  7.4493469e+002  4.5420600e-022
  7.4514183e+002  4.5571800e-022
  7.4534897e+002  4.5643100e-022
  7.4555612e+002  4.5806100e-022
  7.4576336e+002  4.5888300e-022
  7.4597051e+002  4.5981200e-022
  7.4617765e+002  4.6002800e-022
  7.4638490e+002  4.6073700e-022
  7.4659204e+002  4.6081300e-022
  7.4679928e+002  4.6140400e-022
  7.4700653e+002  4.6113100e-022
  7.4721367e+002  4.6114600e-022
  7.4742092e+002  4.6016800e-022
  7.4762816e+002  4.6017600e-022
  7.4783540e+002  4.5920600e-022
  7.4804265e+002  4.5826900e-022
  7.4824989e+002  4.5648400e-022
  7.4845714e+002  4.5522200e-022
  7.4866438e+002  4.5316000e-022
  7.4887162e+002  4.5107900e-022
  7.4907897e+002  4.4816800e-022
  7.4928621e+002  4.4563600e-022
  7.4949346e+002  4.4276700e-022
  7.4970080e+002  4.3996900e-022
  7.4990804e+002  4.3624700e-022
  7.5011539e+002  4.3305900e-022
  7.5032273e+002  4.2893500e-022
  7.5053008e+002  4.2513700e-022
  7.5073742e+002  4.2067200e-022
  7.5094467e+002  4.1696100e-022
  7.5115211e+002  4.1224200e-022
  7.5135945e+002  4.0790600e-022
  7.5156680e+002  4.0334600e-022
  7.5177414e+002  3.9918100e-022
  7.5198149e+002  3.9414700e-022
  7.5218893e+002  3.8968200e-022
  7.5239627e+002  3.8479200e-022
  7.5260372e+002  3.8059200e-022
  7.5281116e+002  3.7607000e-022
  7.5301861e+002  3.7226200e-022
  7.5322595e+002  3.6786800e-022
  7.5343339e+002  3.6428700e-022
  7.5364084e+002  3.5973900e-022
  7.5384838e+002  3.5551000e-022
  7.5405583e+002  3.5206900e-022
  7.5426327e+002  3.4863900e-022
  7.5447081e+002  3.4497100e-022
  7.5467826e+002  3.4174900e-022
  7.5488580e+002  3.3847500e-022
  7.5509325e+002  3.3535800e-022
  7.5530079e+002  3.3207000e-022
  7.5550833e+002  3.2925900e-022
  7.5571588e+002  3.2590400e-022
  7.5592342e+002  3.2331100e-022
  7.5613097e+002  3.2045300e-022
  7.5633861e+002  3.1860000e-022
  7.5654615e+002  3.1583900e-022
  7.5675370e+002  3.1350300e-022
  7.5696134e+002  3.1071400e-022
  7.5716899e+002  3.0887200e-022
  7.5737663e+002  3.0650700e-022
  7.5758427e+002  3.0467900e-022
  7.5779192e+002  3.0231600e-022
  7.5799956e+002  3.0085200e-022
  7.5820721e+002  2.9851000e-022
  7.5841485e+002  2.9695100e-022
  7.5862259e+002  2.9507700e-022
  7.5883024e+002  2.9388900e-022
  7.5903798e+002  2.9195100e-022
  7.5924573e+002  2.9046900e-022
  7.5945347e+002  2.8793000e-022
  7.5966121e+002  2.8613000e-022
  7.5986896e+002  2.8362800e-022
  7.6007670e+002  2.8203400e-022
  7.6028455e+002  2.8066000e-022
  7.6049229e+002  2.7998200e-022
  7.6070013e+002  2.7855900e-022
  7.6090798e+002  2.7823900e-022
  7.6111572e+002  2.7691800e-022
  7.6132356e+002  2.7673000e-022
  7.6153151e+002  2.7601400e-022
  7.6173935e+002  2.7608900e-022
  7.6194720e+002  2.7483400e-022
  7.6215514e+002  2.7367600e-022
  7.6236298e+002  2.7185700e-022
  7.6257093e+002  2.7094000e-022
  7.6277887e+002  2.6986500e-022
  7.6298682e+002  2.6916000e-022
  7.6319476e+002  2.6809500e-022
  7.6340270e+002  2.6738400e-022
  7.6361075e+002  2.6631900e-022
  7.6381869e+002  2.6423700e-022
  7.6402674e+002  2.6148100e-022
  7.6423478e+002  2.5946900e-022
  7.6444282e+002  2.5953700e-022
  7.6465087e+002  2.5975500e-022
  7.6485891e+002  2.5889300e-022
  7.6506705e+002  2.5802000e-022
  7.6527510e+002  2.5740400e-022
  7.6548324e+002  2.5802400e-022
  7.6569139e+002  2.5872700e-022
  7.6589953e+002  2.5961400e-022
  7.6610767e+002  2.5964900e-022
  7.6631582e+002  2.5995100e-022
  7.6652396e+002  2.5924200e-022
  7.6673221e+002  2.5956000e-022
  7.6694045e+002  2.5897900e-022
  7.6714859e+002  2.5899100e-022
  7.6735684e+002  2.5874100e-022
  7.6756518e+002  2.5859000e-022
  7.6777342e+002  2.5786100e-022
  7.6798167e+002  2.5821100e-022
  7.6819001e+002  2.5749100e-022
  7.6839836e+002  2.5799200e-022
  7.6860670e+002  2.5822500e-022
  7.6881504e+002  2.5836800e-022
  7.6902339e+002  2.5820900e-022
  7.6923173e+002  2.5897700e-022
  7.6944017e+002  2.5821400e-022
  7.6964862e+002  2.5898200e-022
  7.6985696e+002  2.5957600e-022
  7.7006541e+002  2.6065200e-022
  7.7027395e+002  2.6084800e-022
  7.7048239e+002  2.6165600e-022
  7.7069094e+002  2.6233300e-022
  7.7089938e+002  2.6347400e-022
  7.7110792e+002  2.6375500e-022
  7.7131647e+002  2.6569100e-022
  7.7152501e+002  2.6660500e-022
  7.7173366e+002  2.6803300e-022
  7.7194220e+002  2.6891200e-022
  7.7215084e+002  2.7102300e-022
  7.7235949e+002  2.7215400e-022
  7.7256813e+002  2.7385200e-022
  7.7277677e+002  2.7543400e-022
  7.7298552e+002  2.7800600e-022
  7.7319416e+002  2.7963200e-022
  7.7340290e+002  2.8216500e-022
  7.7361165e+002  2.8358800e-022
  7.7382039e+002  2.8649700e-022
  7.7402914e+002  2.8792500e-022
  7.7423798e+002  2.9057700e-022
  7.7444672e+002  2.9243700e-022
  7.7465557e+002  2.9581600e-022
  7.7486441e+002  2.9749300e-022
  7.7507335e+002  3.0080300e-022
  7.7528220e+002  3.0287000e-022
  7.7549114e+002  3.0605700e-022
  7.7569998e+002  3.0762700e-022
  7.7590893e+002  3.1083800e-022
  7.7611797e+002  3.1266400e-022
  7.7632692e+002  3.1540400e-022
  7.7653586e+002  3.1743600e-022
  7.7674490e+002  3.1979500e-022
  7.7695395e+002  3.2147000e-022
  7.7716299e+002  3.2425100e-022
  7.7737213e+002  3.2564000e-022
  7.7758118e+002  3.2788800e-022
  7.7779032e+002  3.2815500e-022
  7.7799946e+002  3.3028200e-022
  7.7820861e+002  3.3036200e-022
  7.7841775e+002  3.3198700e-022
  7.7862699e+002  3.3206300e-022
  7.7883614e+002  3.3309800e-022
  7.7904538e+002  3.3246600e-022
  7.7925472e+002  3.3303600e-022
  7.7946397e+002  3.3170700e-022
  7.7967321e+002  3.3209700e-022
  7.7988256e+002  3.3060900e-022
  7.8009190e+002  3.3055300e-022
  7.8034093e+002  3.2786900e-022
  7.8064075e+002  3.2493900e-022
  7.8094047e+002  3.2227700e-022
  7.8124009e+002  3.1858400e-022
  7.8153971e+002  3.1499400e-022
  7.8183923e+002  3.1115100e-022
  7.8213865e+002  3.0649500e-022
  7.8243797e+002  3.0193300e-022
  7.8273718e+002  2.9778800e-022
  7.8303640e+002  2.9332000e-022
  7.8333552e+002  2.8843500e-022
  7.8363454e+002  2.8383300e-022
  7.8393346e+002  2.7924400e-022
  7.8423238e+002  2.7391600e-022
  7.8453120e+002  2.6944100e-022
  7.8482992e+002  2.6511600e-022
  7.8512854e+002  2.6070300e-022
  7.8542716e+002  2.5656900e-022
  7.8572558e+002  2.5225500e-022
  7.8602400e+002  2.4855900e-022
  7.8632242e+002  2.4502500e-022
  7.8662064e+002  2.4114700e-022
  7.8691886e+002  2.3760800e-022
  7.8721697e+002  2.3457800e-022
  7.8751509e+002  2.3132400e-022
  7.8781301e+002  2.2815100e-022
  7.8811093e+002  2.2480100e-022
  7.8840875e+002  2.2211300e-022
  7.8870657e+002  2.1935100e-022
  7.8900419e+002  2.1638700e-022
  7.8930181e+002  2.1405600e-022
  7.8959933e+002  2.1147100e-022
  7.8989685e+002  2.0891200e-022
  7.9019427e+002  2.0655100e-022
  7.9049149e+002  2.0432800e-022
  7.9078881e+002  2.0225300e-022
  7.9108593e+002  1.9990000e-022
  7.9138305e+002  1.9761800e-022
  7.9168007e+002  1.9511500e-022
  7.9197699e+002  1.9306400e-022
  7.9227391e+002  1.9061500e-022
  7.9257073e+002  1.8857000e-022
  7.9286745e+002  1.8618800e-022
  7.9316407e+002  1.8411700e-022
  7.9346069e+002  1.8237700e-022
  7.9375721e+002  1.8041800e-022
  7.9405363e+002  1.7836000e-022
  7.9435005e+002  1.7641000e-022
  7.9464637e+002  1.7429200e-022
  7.9494259e+002  1.7274900e-022
  7.9523871e+002  1.7124200e-022
  7.9553483e+002  1.6971700e-022
  7.9583085e+002  1.6834300e-022
  7.9612677e+002  1.6721400e-022
  7.9642269e+002  1.6635000e-022
  7.9671851e+002  1.6535300e-022
  7.9701423e+002  1.6397700e-022
  7.9730995e+002  1.6318800e-022
  7.9760547e+002  1.6260400e-022
  7.9790099e+002  1.6167800e-022
  7.9819651e+002  1.6081900e-022
  7.9849183e+002  1.5996500e-022
  7.9878715e+002  1.5922200e-022
  7.9908247e+002  1.5866500e-022
  7.9937759e+002  1.5766100e-022
  7.9967271e+002  1.5693100e-022
  7.9996773e+002  1.5645400e-022
  8.0026275e+002  1.5597800e-022
  8.0055767e+002  1.5523600e-022
  8.0085249e+002  1.5487600e-022
  8.0114721e+002  1.5446100e-022
  8.0144193e+002  1.5426700e-022
  8.0173655e+002  1.5358500e-022
  8.0203107e+002  1.5306000e-022
  8.0232559e+002  1.5302200e-022
  8.0262001e+002  1.5286000e-022
  8.0291433e+002  1.5255500e-022
  8.0320865e+002  1.5252200e-022
  8.0350288e+002  1.5258500e-022
  8.0379700e+002  1.5288900e-022
  8.0409112e+002  1.5281200e-022
  8.0438514e+002  1.5299800e-022
  8.0467906e+002  1.5365900e-022
  8.0497298e+002  1.5433200e-022
  8.0526680e+002  1.5499000e-022
  8.0556052e+002  1.5577300e-022
  8.0585424e+002  1.5729600e-022
  8.0614776e+002  1.5846200e-022
  8.0644138e+002  1.5961500e-022
  8.0673480e+002  1.6136800e-022
  8.0702822e+002  1.6317600e-022
  8.0732164e+002  1.6534400e-022
  8.0761486e+002  1.6738700e-022
  8.0790808e+002  1.6972100e-022
  8.0820121e+002  1.7226800e-022
  8.0849433e+002  1.7457200e-022
  8.0878735e+002  1.7702500e-022
  8.0908027e+002  1.7944000e-022
  8.0937319e+002  1.8205300e-022
  8.0966601e+002  1.8462500e-022
  8.0995873e+002  1.8750600e-022
  8.1025145e+002  1.8975100e-022
  8.1054407e+002  1.9238000e-022
  8.1083669e+002  1.9523400e-022
  8.1112911e+002  1.9770500e-022
  8.1142164e+002  2.0054900e-022
  8.1171396e+002  2.0326100e-022
  8.1200628e+002  2.0568600e-022
  8.1229850e+002  2.0856100e-022
  8.1259072e+002  2.1094900e-022
  8.1288284e+002  2.1308300e-022
  8.1317486e+002  2.1576400e-022
  8.1346688e+002  2.1831000e-022
  8.1375880e+002  2.2067400e-022
  8.1405062e+002  2.2245500e-022
  8.1434245e+002  2.2404500e-022
  8.1463417e+002  2.2595000e-022
  8.1492579e+002  2.2761900e-022
  8.1521741e+002  2.2858200e-022
  8.1550903e+002  2.2984800e-022
  8.1580045e+002  2.3063200e-022
  8.1609187e+002  2.3113400e-022
  8.1638329e+002  2.3141500e-022
  8.1667452e+002  2.3140200e-022
  8.1696584e+002  2.3090400e-022
  8.1725696e+002  2.3037800e-022
  8.1754808e+002  2.2948100e-022
  8.1783910e+002  2.2834800e-022
  8.1813012e+002  2.2647200e-022
  8.1842104e+002  2.2444800e-022
  8.1871186e+002  2.2274400e-022
  8.1900269e+002  2.2044300e-022
  8.1929341e+002  2.1759900e-022
  8.1958413e+002  2.1442900e-022
  8.1987475e+002  2.1150000e-022
  8.2016527e+002  2.0855300e-022
  8.2045579e+002  2.0545700e-022
  8.2074621e+002  2.0174300e-022
  8.2103664e+002  1.9781900e-022
  8.2132696e+002  1.9420900e-022
  8.2161718e+002  1.9015900e-022
  8.2190740e+002  1.8632400e-022
  8.2219752e+002  1.8171800e-022
  8.2248764e+002  1.7691300e-022
  8.2277767e+002  1.7251600e-022
  8.2306759e+002  1.6899800e-022
  8.2335751e+002  1.6365100e-022
  8.2364733e+002  1.5929200e-022
  8.2393715e+002  1.5624100e-022
  8.2422687e+002  1.5362500e-022
  8.2451650e+002  1.5063100e-022
  8.2480612e+002  1.4667100e-022
  8.2509574e+002  1.4247200e-022
  8.2538516e+002  1.3905600e-022
  8.2567458e+002  1.3583200e-022
  8.2596400e+002  1.3223800e-022
  8.2625333e+002  1.2863400e-022
  8.2654255e+002  1.2530800e-022
  8.2683177e+002  1.2221200e-022
  8.2712089e+002  1.1926300e-022
  8.2741001e+002  1.1624800e-022
  8.2769903e+002  1.1343400e-022
  8.2798796e+002  1.1136600e-022
  8.2827688e+002  1.0936000e-022
  8.2856580e+002  1.0757100e-022
  8.2885452e+002  1.0577300e-022
  8.2914334e+002  1.0388700e-022
  8.2943197e+002  1.0175800e-022
  8.2972059e+002  9.9968200e-023
  8.3000921e+002  9.8384100e-023
  8.3029773e+002  9.6553000e-023
  8.3058615e+002  9.5168700e-023
  8.3087458e+002  9.3606300e-023
  8.3116290e+002  9.1754700e-023
  8.3145122e+002  9.0128600e-023
  8.3173944e+002  8.8852800e-023
  8.3202766e+002  8.7636000e-023
  8.3231579e+002  8.6648600e-023
  8.3260381e+002  8.5615000e-023
  8.3289183e+002  8.4853900e-023
  8.3317985e+002  8.3945700e-023
  8.3346778e+002  8.2882100e-023
  8.3375560e+002  8.2042900e-023
  8.3404342e+002  8.0472100e-023
  8.3433114e+002  7.9664800e-023
  8.3461876e+002  7.8874100e-023
  8.3490649e+002  7.8617100e-023
  8.3519401e+002  7.8509500e-023
  8.3548153e+002  7.8635700e-023
  8.3576905e+002  7.8322200e-023
  8.3605648e+002  7.7871900e-023
  8.3634380e+002  7.7748700e-023
  8.3663112e+002  7.7441700e-023
  8.3691834e+002  7.7271100e-023
  8.3720556e+002  7.7134700e-023
  8.3749269e+002  7.6964900e-023
  8.3777981e+002  7.6731000e-023
  8.3806693e+002  7.7012200e-023
  8.3835385e+002  7.7190000e-023
  8.3864078e+002  7.6771200e-023
  8.3892770e+002  7.6778700e-023
  8.3921452e+002  7.6916300e-023
  8.3950134e+002  7.7238500e-023
  8.3978807e+002  7.7194200e-023
  8.4007469e+002  7.7453400e-023
  8.4036141e+002  7.7778300e-023
  8.4064793e+002  7.7459100e-023
  8.4093446e+002  7.7874200e-023
  8.4122098e+002  7.8239200e-023
  8.4150740e+002  7.8929800e-023
  8.4179372e+002  7.9659100e-023
  8.4208005e+002  8.0407700e-023
  8.4236637e+002  8.1016400e-023
  8.4265249e+002  8.1570600e-023
  8.4293871e+002  8.2427600e-023
  8.4322484e+002  8.2944600e-023
  8.4351086e+002  8.3933500e-023
  8.4379688e+002  8.5145700e-023
  8.4408290e+002  8.5882200e-023
  8.4436883e+002  8.6482600e-023
  8.4465465e+002  8.7492000e-023
  8.4494047e+002  8.8898200e-023
  8.4522619e+002  8.9403500e-023
  8.4551192e+002  9.0762700e-023
  8.4579764e+002  9.1919600e-023
  8.4608326e+002  9.3517200e-023
  8.4636879e+002  9.4762800e-023
  8.4665431e+002  9.6288000e-023
  8.4693983e+002  9.7908800e-023
  8.4722525e+002  9.9657700e-023
  8.4751058e+002  1.0164900e-022
  8.4779590e+002  1.0365200e-022
  8.4808122e+002  1.0592100e-022
  8.4836645e+002  1.0880200e-022
  8.4865157e+002  1.1105000e-022
  8.4893679e+002  1.1350800e-022
  8.4922181e+002  1.1665900e-022
  8.4950684e+002  1.1981900e-022
  8.4979186e+002  1.2239800e-022
  8.5007678e+002  1.2535100e-022
  8.5036171e+002  1.2845600e-022
  8.5064653e+002  1.3209000e-022
  8.5093135e+002  1.3537900e-022
  8.5121607e+002  1.3869300e-022
  8.5150080e+002  1.4195500e-022
  8.5178542e+002  1.4474300e-022
  8.5207004e+002  1.4779900e-022
  8.5235467e+002  1.5043400e-022
  8.5263919e+002  1.5209600e-022
  8.5292361e+002  1.5352700e-022
  8.5320804e+002  1.5418600e-022
  8.5349246e+002  1.5440500e-022
  8.5377678e+002  1.5412800e-022
  8.5406110e+002  1.5385600e-022
  8.5434533e+002  1.5332100e-022
  8.5462955e+002  1.5233900e-022
  8.5491367e+002  1.5125400e-022
  8.5519780e+002  1.4958100e-022
  8.5548182e+002  1.4780300e-022
  8.5576584e+002  1.4655000e-022
  8.5604987e+002  1.4478600e-022
  8.5633379e+002  1.4310000e-022
  8.5661761e+002  1.4099700e-022
  8.5690154e+002  1.3936500e-022
  8.5718526e+002  1.3736700e-022
  8.5746908e+002  1.3543200e-022
  8.5775281e+002  1.3379600e-022
  8.5803643e+002  1.3201500e-022
  8.5832005e+002  1.3016500e-022
  8.5860358e+002  1.2785600e-022
  8.5888720e+002  1.2588100e-022
  8.5917062e+002  1.2386700e-022
  8.5945405e+002  1.2106600e-022
  8.5973747e+002  1.1848100e-022
  8.6002089e+002  1.1620200e-022
  8.6030422e+002  1.1409100e-022
  8.6058744e+002  1.1148900e-022
  8.6087066e+002  1.0939300e-022
  8.6115389e+002  1.0644400e-022
  8.6143701e+002  1.0388600e-022
  8.6172013e+002  1.0119900e-022
  8.6200316e+002  9.7811400e-023
  8.6228618e+002  9.5181200e-023
  8.6256920e+002  9.2835300e-023
  8.6285213e+002  9.0027000e-023
  8.6313505e+002  8.7252800e-023
  8.6341787e+002  8.4831900e-023
  8.6370070e+002  8.2445000e-023
  8.6398342e+002  8.0537700e-023
  8.6426624e+002  7.8816100e-023
  8.6454887e+002  7.6714700e-023
  8.6483149e+002  7.4609900e-023
  8.6511411e+002  7.2966300e-023
  8.6539674e+002  7.1027200e-023
  8.6567926e+002  6.9285100e-023
  8.6596168e+002  6.7605900e-023
  8.6624421e+002  6.6234900e-023
  8.6652663e+002  6.4220700e-023
  8.6680896e+002  6.2965700e-023
  8.6709128e+002  6.1665200e-023
  8.6737360e+002  6.0093700e-023
  8.6765583e+002  5.8972500e-023
  8.6793805e+002  5.7636400e-023
  8.6822017e+002  5.6239200e-023
  8.6850230e+002  5.5090300e-023
  8.6878442e+002  5.4254200e-023
  8.6906644e+002  5.2808100e-023
  8.6934847e+002  5.1592200e-023
  8.6963049e+002  5.0631300e-023
  8.6991242e+002  4.9758400e-023
  8.7019434e+002  4.8953700e-023
  8.7047616e+002  4.8237600e-023
  8.7075799e+002  4.7133100e-023
  8.7103981e+002  4.6610800e-023
  8.7132153e+002  4.5835300e-023
  8.7160326e+002  4.5320200e-023
  8.7188488e+002  4.4648500e-023
  8.7216651e+002  4.3960500e-023
  8.7244813e+002  4.3570500e-023
  8.7272965e+002  4.3028100e-023
  8.7301118e+002  4.2428800e-023
  8.7329270e+002  4.1842100e-023
  8.7357412e+002  4.1165100e-023
  8.7385555e+002  4.1250400e-023
  8.7413697e+002  4.0955500e-023
  8.7441830e+002  4.0411200e-023
  8.7469962e+002  3.9797500e-023
  8.7498084e+002  3.9522700e-023
  8.7526207e+002  3.9812700e-023
  8.7554329e+002  3.9720200e-023
  8.7582442e+002  3.9420700e-023
  8.7610554e+002  3.9004200e-023
  8.7638666e+002  3.9025400e-023
  8.7666769e+002  3.9037500e-023
  8.7694871e+002  3.8945800e-023
  8.7722973e+002  3.8737300e-023
  8.7751066e+002  3.8940100e-023
  8.7779158e+002  3.9272200e-023
  8.7807241e+002  3.9501100e-023
  8.7835333e+002  3.9996900e-023
  8.7863405e+002  3.9707700e-023
  8.7891488e+002  3.9777800e-023
  8.7919560e+002  3.9838500e-023
  8.7947633e+002  4.0228100e-023
  8.7975695e+002  4.0670400e-023
  8.8003767e+002  4.1207600e-023
  8.8031820e+002  4.0939600e-023
  8.8059882e+002  4.0147000e-023
  8.8087935e+002  4.0574200e-023
  8.8115987e+002  4.1855000e-023
  8.8144029e+002  4.2111600e-023
  8.8172072e+002  4.2267700e-023
  8.8200114e+002  4.2214700e-023
  8.8228157e+002  4.2506900e-023
  8.8256189e+002  4.2958700e-023
  8.8284222e+002  4.3489800e-023
  8.8312244e+002  4.4054900e-023
  8.8340266e+002  4.5198900e-023
  8.8368289e+002  4.5892100e-023
  8.8396311e+002  4.6637300e-023
  8.8424324e+002  4.7359000e-023
  8.8452336e+002  4.8277100e-023
  8.8480348e+002  4.7917400e-023
  8.8508351e+002  4.8163700e-023
  8.8536353e+002  4.8666000e-023
  8.8564356e+002  4.9684800e-023
  8.8592348e+002  5.0686300e-023
  8.8620341e+002  5.1339000e-023
  8.8648333e+002  5.1992800e-023
  8.8676315e+002  5.2757000e-023
  8.8704298e+002  5.3425600e-023
  8.8732280e+002  5.3815600e-023
  8.8760263e+002  5.4275400e-023
  8.8788235e+002  5.4942900e-023
  8.8816208e+002  5.5170300e-023
  8.8844170e+002  5.5256700e-023
  8.8872142e+002  5.5291600e-023
  8.8900105e+002  5.5069900e-023
  8.8928057e+002  5.5195700e-023
  8.8956020e+002  5.5241200e-023
  8.8983972e+002  5.5623300e-023
  8.9011925e+002  5.5454200e-023
  8.9039867e+002  5.5177900e-023
  8.9067819e+002  5.4510400e-023
  8.9095762e+002  5.3463500e-023
  8.9123694e+002  5.2343400e-023
  8.9151637e+002  5.1843100e-023
  8.9179569e+002  5.1695600e-023
  8.9207502e+002  5.1530400e-023
  8.9235424e+002  5.2128100e-023
  8.9263356e+002  5.2948800e-023
  8.9291279e+002  5.3513900e-023
  8.9319191e+002  5.4148800e-023
  8.9347114e+002  5.5005100e-023
  8.9375026e+002  5.5917000e-023
  8.9402939e+002  5.6269200e-023
  8.9430851e+002  5.6728900e-023
  8.9458754e+002  5.7165600e-023
  8.9486656e+002  5.9176800e-023
  8.9514558e+002  6.1069400e-023
  8.9542451e+002  6.2037800e-023
  8.9570353e+002  6.3259800e-023
  8.9598246e+002  6.4584600e-023
  8.9626138e+002  6.5819100e-023
  8.9654021e+002  6.5817600e-023
  8.9681903e+002  6.5769500e-023
  8.9709786e+002  6.6017000e-023
  8.9737668e+002  6.7099500e-023
  8.9765550e+002  6.7935700e-023
  8.9793423e+002  6.8331800e-023
  8.9821295e+002  6.8453500e-023
  8.9849168e+002  6.8414800e-023
  8.9877030e+002  6.8327200e-023
  8.9904893e+002  6.8034600e-023
  8.9932755e+002  6.7558200e-023
  8.9960618e+002  6.7191300e-023
  8.9988480e+002  6.6296000e-023
  9.0016333e+002  6.5883900e-023
  9.0044185e+002  6.4989800e-023
  9.0072037e+002  6.3695700e-023
  9.0099880e+002  6.2739800e-023
  9.0127722e+002  6.1319900e-023
  9.0155565e+002  6.0304800e-023
  9.0183407e+002  5.9282200e-023
  9.0211250e+002  5.8145000e-023
  9.0239082e+002  5.6894600e-023
  9.0266915e+002  5.5638400e-023
  9.0294747e+002  5.4448200e-023
  9.0322580e+002  5.3259200e-023
  9.0350402e+002  5.2247500e-023
  9.0378235e+002  4.9939200e-023
  9.0406057e+002  4.8368000e-023
  9.0433869e+002  4.8350600e-023
  9.0461692e+002  4.5997100e-023
  9.0489504e+002  4.4777400e-023
  9.0517317e+002  4.4187200e-023
  9.0545129e+002  4.4048100e-023
  9.0572942e+002  4.3603500e-023
  9.0600744e+002  4.2623300e-023
  9.0628547e+002  4.0667800e-023
  9.0656349e+002  3.9266500e-023
  9.0684152e+002  3.8993900e-023
  9.0711954e+002  3.8452700e-023
  9.0739747e+002  3.8121400e-023
  9.0767539e+002  3.6591800e-023
  9.0795332e+002  3.5722000e-023
  9.0823124e+002  3.4764600e-023
  9.0850916e+002  3.4036700e-023
  9.0878699e+002  3.2962100e-023
  9.0906481e+002  3.2819400e-023
  9.0934264e+002  3.1565200e-023
  9.0962046e+002  3.1005100e-023
  9.0989829e+002  2.9614700e-023
  9.1017601e+002  2.9349000e-023
  9.1045374e+002  2.8337700e-023
  9.1073146e+002  2.7907500e-023
  9.1100919e+002  2.7005500e-023
  9.1128691e+002  2.6729100e-023
  9.1156454e+002  2.5464800e-023
  9.1184216e+002  2.5500000e-023
  9.1211979e+002  2.4365300e-023
  9.1239741e+002  2.4300400e-023
  9.1267504e+002  2.3558700e-023
  9.1295256e+002  2.3166900e-023
  9.1323009e+002  2.2290100e-023
  9.1350771e+002  2.1636400e-023
  9.1378524e+002  2.1107600e-023
  9.1406266e+002  2.1327000e-023
  9.1434019e+002  2.0289600e-023
  9.1461761e+002  1.9983700e-023
  9.1489514e+002  1.9589500e-023
  9.1517256e+002  1.9265300e-023
  9.1544998e+002  1.8825700e-023
  9.1572731e+002  1.8149700e-023
  9.1600473e+002  1.7593000e-023
  9.1628206e+002  1.7190800e-023
  9.1655948e+002  1.6767800e-023
  9.1683681e+002  1.6970100e-023
  9.1711413e+002  1.7132300e-023
  9.1739136e+002  1.6987600e-023
  9.1766868e+002  1.7078500e-023
  9.1794591e+002  1.7466800e-023
  9.1822323e+002  1.7456100e-023
  9.1850046e+002  1.7178100e-023
  9.1877768e+002  1.7196400e-023
  9.1905481e+002  1.7128400e-023
  9.1933203e+002  1.6380500e-023
  9.1960926e+002  1.5952500e-023
  9.1988638e+002  1.5743800e-023
  9.2016351e+002  1.5606500e-023
  9.2044063e+002  1.5238400e-023
  9.2071776e+002  1.5096000e-023
  9.2099488e+002  1.5531400e-023
  9.2127201e+002  1.5734500e-023
  9.2154903e+002  1.5976200e-023
  9.2182606e+002  1.5707000e-023
  9.2210318e+002  1.5619800e-023
  9.2238021e+002  1.5907800e-023
  9.2265723e+002  1.5721500e-023
  9.2293416e+002  1.6064900e-023
  9.2321118e+002  1.5877600e-023
  9.2348821e+002  1.6720000e-023
  9.2376513e+002  1.5840400e-023
  9.2404206e+002  1.6086400e-023
  9.2431908e+002  1.6164200e-023
  9.2459601e+002  1.6150500e-023
  9.2487283e+002  1.5668500e-023
  9.2514976e+002  1.5794600e-023
  9.2542668e+002  1.5761900e-023
  9.2570351e+002  1.6279400e-023
  9.2598043e+002  1.5957800e-023
  9.2625726e+002  1.6298000e-023
  9.2653408e+002  1.6355500e-023
  9.2681091e+002  1.6780500e-023
  9.2708773e+002  1.6593400e-023
  9.2736456e+002  1.6663200e-023
  9.2764138e+002  1.6526000e-023
  9.2791821e+002  1.7118100e-023
  9.2819493e+002  1.7194100e-023
  9.2847166e+002  1.6861600e-023
  9.2874848e+002  1.6607800e-023
  9.2902521e+002  1.7050200e-023
  9.2930193e+002  1.6888900e-023
  9.2957866e+002  1.7316100e-023
  9.2985538e+002  1.6908000e-023
  9.3013211e+002  1.6660200e-023
  9.3040873e+002  1.6380000e-023
  9.3068546e+002  1.6744400e-023
  9.3096208e+002  1.6719500e-023
  9.3123881e+002  1.7151000e-023
  9.3151543e+002  1.6818100e-023
  9.3179206e+002  1.6781200e-023
  9.3206878e+002  1.6469800e-023
  9.3234541e+002  1.7023900e-023
  9.3262203e+002  1.6941400e-023
  9.3289856e+002  1.6528700e-023
  9.3317518e+002  1.5727200e-023
  9.3345181e+002  1.5891200e-023
  9.3372833e+002  1.5629700e-023
  9.3400496e+002  1.5913900e-023
  9.3428148e+002  1.6132700e-023
  9.3455811e+002  1.6349100e-023
  9.3483463e+002  1.6690100e-023
  9.3511116e+002  1.7101800e-023
  9.3538778e+002  1.7578300e-023
  9.3566431e+002  1.8171700e-023
  9.3594083e+002  1.8590200e-023
  9.3621736e+002  1.9587700e-023
  9.3649378e+002  2.0342500e-023
  9.3677031e+002  2.0814400e-023
  9.3704683e+002  2.1123600e-023
  9.3732336e+002  2.2138000e-023
  9.3759978e+002  2.2714400e-023
  9.3787631e+002  2.3450800e-023
  9.3815273e+002  2.3885900e-023
  9.3842926e+002  2.4887100e-023
  9.3870568e+002  2.5816300e-023
  9.3898211e+002  2.7224500e-023
  9.3925863e+002  2.8454200e-023
  9.3953506e+002  2.9640400e-023
  9.3981148e+002  3.0989600e-023
  9.4008791e+002  3.2071800e-023
  9.4036433e+002  3.3712800e-023
  9.4064076e+002  3.5048300e-023
  9.4091718e+002  3.5929700e-023
  9.4119361e+002  3.7554100e-023
  9.4147003e+002  3.8437900e-023
  9.4174646e+002  3.9655000e-023
  9.4202288e+002  4.1062000e-023
  9.4229921e+002  4.1927000e-023
  9.4257563e+002  4.2650900e-023
  9.4285206e+002  4.3037600e-023
  9.4312838e+002  4.4015100e-023
  9.4340481e+002  4.4886900e-023
  9.4368123e+002  4.5442200e-023
  9.4395756e+002  4.5477500e-023
  9.4423399e+002  4.5714000e-023
  9.4451031e+002  4.5515400e-023
  9.4478674e+002  4.5008200e-023
  9.4506306e+002  4.4613600e-023
  9.4533939e+002  4.4144400e-023
  9.4561581e+002  4.3719500e-023
  9.4589214e+002  4.2545900e-023
  9.4616846e+002  4.1769300e-023
  9.4644489e+002  4.0230800e-023
  9.4672121e+002  3.9163400e-023
  9.4699754e+002  3.7870000e-023
  9.4727396e+002  3.6733100e-023
  9.4755029e+002  3.5166900e-023
  9.4782661e+002  3.3436400e-023
  9.4810294e+002  3.2329100e-023
  9.4837936e+002  3.1651800e-023
  9.4865569e+002  3.0298100e-023
  9.4893201e+002  2.8720000e-023
  9.4920834e+002  2.7312800e-023
  9.4948466e+002  2.5953700e-023
  9.4976109e+002  2.4998500e-023
  9.5003741e+002  2.3967100e-023
  9.5031374e+002  2.2978700e-023
  9.5059006e+002  2.1588900e-023
  9.5086639e+002  2.0313100e-023
  9.5114271e+002  1.9826300e-023
  9.5141914e+002  1.9329100e-023
  9.5169546e+002  1.9138500e-023
  9.5197179e+002  1.9213100e-023
  9.5224811e+002  1.8561300e-023
  9.5252454e+002  1.7438600e-023
  9.5280086e+002  1.6894300e-023
  9.5307719e+002  1.5646900e-023
  9.5335351e+002  1.5528100e-023
  9.5362994e+002  1.5286800e-023
  9.5390626e+002  1.4694700e-023
  9.5418259e+002  1.4734500e-023
  9.5445901e+002  1.5399300e-023
  9.5473534e+002  1.5717200e-023
  9.5501166e+002  1.5794000e-023
  9.5528809e+002  1.5202900e-023
  9.5556441e+002  1.4539800e-023
  9.5584084e+002  1.4352100e-023
  9.5611716e+002  1.4215700e-023
  9.5639359e+002  1.4345400e-023
  9.5666991e+002  1.4418000e-023
  9.5694634e+002  1.3911400e-023
  9.5722266e+002  1.3217300e-023
  9.5749909e+002  1.2949300e-023
  9.5777551e+002  1.3008500e-023
  9.5805184e+002  1.2760300e-023
  9.5832826e+002  1.2725000e-023
  9.5860469e+002  1.1396200e-023
  9.5888111e+002  1.0710700e-023
  9.5915754e+002  1.0530700e-023
  9.5943396e+002  1.0619800e-023
  9.5971039e+002  1.0303000e-023
  9.5998681e+002  9.9568700e-024
  9.6026324e+002  9.1465900e-024
  9.6053966e+002  9.5814200e-024
  9.6081609e+002  9.3289100e-024
  9.6109251e+002  9.6954400e-024
  9.6136904e+002  9.2726200e-024
  9.6164547e+002  8.9221600e-024
  9.6192189e+002  8.7983200e-024
  9.6219842e+002  8.7199400e-024
  9.6247484e+002  8.5182500e-024
  9.6275137e+002  8.5945500e-024
  9.6302789e+002  8.2091800e-024
  9.6330432e+002  8.1207900e-024
  9.6358084e+002  8.1964800e-024
  9.6385737e+002  8.3979400e-024
  9.6413389e+002  8.2923800e-024
  9.6441042e+002  8.3305100e-024
  9.6468694e+002  7.6682500e-024
  9.6496347e+002  7.6556300e-024
  9.6523999e+002  7.6317500e-024
  9.6551652e+002  7.5284600e-024
  9.6579314e+002  7.0702300e-024
  9.6606967e+002  7.1872800e-024
  9.6634629e+002  6.5635300e-024
  9.6662282e+002  6.4525100e-024
  9.6689944e+002  6.2983500e-024
  9.6717607e+002  6.0395000e-024
  9.6745269e+002  5.4651000e-024
  9.6772932e+002  5.2927200e-024
  9.6800594e+002  5.3232700e-024
  9.6828257e+002  5.5180600e-024
  9.6855919e+002  5.1229800e-024
  9.6883582e+002  4.6573600e-024
  9.6911244e+002  4.7331700e-024
  9.6938917e+002  4.5801900e-024
  9.6966579e+002  3.6255300e-024
  9.6994252e+002  3.4415300e-024
  9.7021924e+002  3.7196300e-024
  9.7049597e+002  3.8863600e-024
  9.7077269e+002  3.6473500e-024
  9.7104942e+002  3.5178900e-024
  9.7132614e+002  3.6797900e-024
  9.7160287e+002  4.0566600e-024
  9.7187969e+002  3.0508800e-024
  9.7215642e+002  2.9969100e-024
  9.7243324e+002  3.0336800e-024
  9.7270996e+002  2.6980700e-024
  9.7298679e+002  2.7578800e-024
  9.7326361e+002  3.1949500e-024
  9.7354044e+002  2.9724500e-024
  9.7381726e+002  3.0101300e-024
  9.7409419e+002  2.7868000e-024
  9.7437101e+002  2.7416100e-024
  9.7464794e+002  2.5612200e-024
  9.7492476e+002  2.9624800e-024
  9.7520169e+002  2.8799300e-024
  9.7547861e+002  2.5922500e-024
  9.7575554e+002  2.3800600e-024
  9.7603246e+002  2.9356700e-024
  9.7630939e+002  2.8973400e-024
  9.7658641e+002  2.8247800e-024
  9.7686334e+002  2.1566900e-024
  9.7714036e+002  1.9162800e-024
  9.7741739e+002  2.1564500e-024
  9.7769441e+002  1.7704900e-024
  9.7797144e+002  1.7921300e-024
  9.7824846e+002  2.0669400e-024
  9.7852549e+002  2.0385700e-024
  9.7880261e+002  2.0364100e-024
  9.7907964e+002  1.7361800e-024
  9.7935676e+002  1.2551100e-024
  9.7963389e+002  9.1001900e-025
  9.7991101e+002  6.3009300e-025
  9.8018814e+002  1.0746300e-024
  9.8046536e+002  1.2067300e-024
  9.8074249e+002  1.3419400e-024
  9.8101971e+002  1.9322000e-024
  9.8129694e+002  2.2542500e-024
  9.8157416e+002  2.3095800e-024
  9.8185139e+002  2.9080900e-024
  9.8212861e+002  2.8876600e-024
  9.8240594e+002  2.5804000e-024
  9.8268316e+002  3.0059000e-024
  9.8296049e+002  2.9114900e-024
  9.8323781e+002  3.6348300e-024
  9.8351513e+002  3.9692500e-024
  9.8379246e+002  4.1820800e-024
  9.8406988e+002  4.1241300e-024
  9.8434721e+002  4.3201700e-024
  9.8462463e+002  4.5143900e-024
  9.8490206e+002  5.7083000e-024
  9.8517948e+002  5.7699300e-024
  9.8545701e+002  6.0437100e-024
  9.8573443e+002  6.2927800e-024
  9.8601196e+002  6.7429300e-024
  9.8628948e+002  6.9482600e-024
  9.8656701e+002  7.7270000e-024
  9.8684453e+002  8.2351400e-024
  9.8712206e+002  9.0510300e-024
  9.8739968e+002  9.0372000e-024
  9.8767731e+002  9.9119500e-024
  9.8795483e+002  1.0436400e-023
  9.8823256e+002  1.0996400e-023
  9.8851018e+002  1.1296200e-023
  9.8878780e+002  1.1859500e-023
  9.8906553e+002  1.2987800e-023
  9.8934325e+002  1.4217500e-023
  9.8962098e+002  1.5484900e-023
  9.8989870e+002  1.7331400e-023
  9.9017653e+002  1.9380200e-023
  9.9045435e+002  2.4037600e-023
  9.9073208e+002  3.0631400e-023
  9.9101000e+002  3.8155900e-023
  9.9128783e+002  4.1890600e-023
  9.9156565e+002  3.7065500e-023
  9.9184358e+002  2.8690200e-023
  9.9212150e+002  2.3452100e-023
  9.9239942e+002  2.2483100e-023
  9.9267735e+002  2.2727800e-023
  9.9295537e+002  2.2022400e-023
  9.9323340e+002  2.2244200e-023
  9.9351142e+002  2.3612600e-023
  9.9378945e+002  2.3659100e-023
  9.9406747e+002  2.3240200e-023
  9.9434560e+002  2.3685700e-023
  9.9462372e+002  2.5001200e-023
  9.9490185e+002  2.2975400e-023
  9.9517997e+002  1.9311800e-023
  9.9545820e+002  1.7311600e-023
  9.9573642e+002  1.8082400e-023
  9.9601464e+002  1.8517600e-023
  9.9629287e+002  1.6155300e-023
  9.9657109e+002  1.3058500e-023
  9.9684942e+002  1.1986300e-023
  9.9712774e+002  1.2829900e-023
  9.9740607e+002  1.4657200e-023
  9.9768439e+002  1.3168900e-023
  9.9796282e+002  1.0014500e-023
  9.9824124e+002  8.9638500e-024
  9.9851966e+002  9.0571700e-024
  9.9879809e+002  8.4844400e-024
  9.9907661e+002  9.2951000e-024
  9.9935514e+002  9.1167200e-024
  9.9963366e+002  7.9451400e-024
  9.9991219e+002  5.8915600e-024
  1.0001908e+003  6.0885900e-024
  1.0004693e+003  6.5525400e-024
  1.0007480e+003  6.5595900e-024
  1.0010267e+003  6.4486400e-024
  1.0013053e+003  7.2513000e-024
  1.0015840e+003  6.6088200e-024
  1.0018628e+003  5.0052100e-024
  1.0021416e+003  3.8507600e-024
  1.0024203e+003  3.7551200e-024
  1.0026991e+003  4.0173900e-024
  1.0029780e+003  4.6167300e-024
  1.0032569e+003  5.0110100e-024
  1.0035357e+003  4.9541500e-024
  1.0038146e+003  4.0442300e-024
  1.0040937e+003  3.5539100e-024
  1.0043726e+003  3.0079800e-024
  1.0046516e+003  2.6427300e-024
  1.0049306e+003  2.4075800e-024
  1.0052096e+003  2.5631000e-024
  1.0054888e+003  3.2948900e-024
  1.0057678e+003  4.3834700e-024
  1.0060470e+003  3.4932200e-024
  1.0063261e+003  2.6973300e-024
  1.0066054e+003  2.3608000e-024
  1.0068846e+003  2.7727900e-024
  1.0071638e+003  2.0768300e-024
  1.0074430e+003  2.1296400e-024
  1.0077224e+003  1.9809800e-024
  1.0080017e+003  1.9692500e-024
  1.0082811e+003  1.6009000e-024
  1.0085604e+003  2.5128600e-024
  1.0088399e+003  2.8618200e-024
  1.0091194e+003  2.2457100e-024
  1.0093988e+003  1.2641100e-024
  1.0096783e+003  1.6494400e-024
  1.0099579e+003  1.7145900e-024
  1.0102375e+003  1.2939200e-024
  1.0105171e+003  1.1060700e-024
  1.0107967e+003  1.1655700e-024
  1.0110764e+003  9.7222400e-025
  1.0113561e+003  1.1666000e-024
  1.0116358e+003  9.7046900e-025
  1.0119155e+003  1.3405600e-024
  1.0121954e+003  9.1159600e-025
  1.0124752e+003  9.5225200e-025
  1.0127550e+003  7.7788900e-025
  1.0130348e+003  1.0202900e-024
  1.0133148e+003  1.2808600e-024
  1.0135947e+003  1.0042800e-024
  1.0138747e+003  9.9854400e-025
  1.0141547e+003  1.1820400e-024
  1.0144347e+003  8.9033900e-025
  1.0147148e+003  1.2277300e-024
  1.0149949e+003  8.7102700e-025
  1.0152750e+003  9.7434300e-025
  1.0155552e+003  9.4003600e-025
  1.0161430e+003  1.4186900e-024
  1.0169399e+003  1.3325200e-024
  1.0177367e+003  1.4385400e-024
  1.0185332e+003  8.9329600e-025
  1.0193297e+003  1.6444400e-024
  1.0201260e+003  9.0237400e-025
  1.0209221e+003  9.3129500e-025
  1.0217181e+003  5.2879000e-025
  1.0225140e+003  7.8665200e-025
  1.0233095e+003  6.0381800e-025
  1.0241050e+003  9.1617900e-025
  1.0249004e+003  8.1682800e-025
  1.0256956e+003  1.7904900e-024
  1.0264906e+003  7.6875000e-025
  1.0272855e+003  1.3119700e-024
  1.0280802e+003  5.5174100e-025
  1.0288747e+003  1.0717100e-024
  1.0296692e+003  5.1897700e-025
  1.0304634e+003  9.5483700e-025
  1.0312575e+003  7.7251000e-025
  1.0320515e+003  1.1296900e-024
  1.0328453e+003  6.9583000e-025
  1.0336389e+003  8.8281200e-025
  1.0344324e+003  1.0830100e-024
  1.0352257e+003  1.2466400e-024
  1.0360189e+003  1.1965400e-024
  1.0368120e+003  1.0985900e-024
  1.0376049e+003  1.0981600e-024
  1.0383975e+003  1.5249500e-024
  1.0391901e+003  1.6823600e-024
  1.0399826e+003  2.0544400e-024
  1.0407748e+003  2.1435100e-024
  1.0415670e+003  2.3924800e-024
  1.0423590e+003  2.3367100e-024
  1.0431508e+003  2.3067300e-024
  1.0439424e+003  2.8784000e-024
  1.0447340e+003  3.8318900e-024
  1.0455254e+003  5.5126400e-024
  1.0463166e+003  6.7248100e-024
  1.0471078e+003  5.1637300e-024
  1.0478987e+003  4.7035700e-024
  1.0486895e+003  4.6969000e-024
  1.0494801e+003  4.9919100e-024
  1.0502706e+003  4.1090000e-024
  1.0510610e+003  3.4249400e-024
  1.0518512e+003  2.4829300e-024
  1.0526413e+003  1.6427700e-024
  1.0534313e+003  1.6361500e-024
  1.0542210e+003  1.8653300e-024
  1.0550106e+003  1.3728300e-024
  1.0558001e+003  1.2775600e-024
  1.0565895e+003  1.2804400e-024
  1.0573787e+003  8.3383600e-025
  1.0581678e+003  1.1584600e-024
  1.0589568e+003  9.2938800e-025
  1.0597455e+003  5.8720800e-025
  1.0605341e+003  6.7903500e-025
  1.0613226e+003  1.1548500e-024
  1.0621110e+003  1.0046200e-024
  1.0628993e+003  8.4270500e-025
  1.0636874e+003  8.6715000e-025
  1.0644753e+003  6.3167400e-025
  1.0652631e+003  1.0990200e-024
  1.0660507e+003  1.1482400e-024
  1.0668383e+003  9.8666500e-025
  1.0676257e+003  5.1269600e-025
  1.0684129e+003  9.2392200e-025
  1.0692001e+003  7.3152100e-025
  1.0699871e+003  5.8452800e-025
  1.0707739e+003  2.4343000e-025
  1.0715605e+003  1.3860000e-025
  1.0723471e+003  3.1793100e-025
  1.0731336e+003  2.6323000e-025
  1.0739199e+003  8.7913900e-026
  1.0747061e+003  1.2705000e-025
