* ============= O3 Absorption Cross Sections at 203K =================================
* 
* Version 2.0
* Date: August 2000
* 
* K. Bogumil, J. Orphal, and J. P. Burrows
* University of Bremen - Institute of Environmental Physics
* P. O. Box 33 04 40
* D-28334 Bremen, Germany
* e-mail: Konstanze.Bogumil@iup.physik.uni-bremen.de
* 
* 1. column title:	wavelength (air) in nm
* 2. column title:	absorption cross-section 
* 
* Wavelength range:	230 - 1070 nm
* Spectral Resolution:	0.32 nm below 311.7 nm, 0.21 nm between 311.7 nm and 402 nm, 0.52 nm
*                         between 402 nm and 597.8 nm, 0.47 nm between 597.8 nm and 781.6 nm,
*                         0.62 nm between 781.6 nm and 1052.5 nm, 1.45 nm above 1052.5 nm (FWHM)
* Number of data points in file:	4227
* 
* Experimental:
* 
* Light source:   Xenon lamp, QTH lamp for 489.5 - 718.9 nm wavelength region
* Cell:	        Multiple reflection quartz cell (White optics)
* 	        optical pathlength 505 cm and 985 cm
* Temperature:    203K
* Gas mixture:    O3, O2, N2
* Condition:      Flow measurement
* Total pressure: 50 - 900 mbar
* Spectrometer:   SCIAMACHY PFM Satellite Spectrometer (Eight channel grating spectrometer)
* 
* Note: Spectral Regions are cutted and concatenated at 287.7 nm, 302.2 nm, 311.7 nm, 316.3 nm, 
*       334.2 nm, 345.2 nm, 402 nm, 489.5 nm, 597.8 nm, 718.9 nm, 781.6 nm and 1052.5 nm.
*
* ===============================================================================================
  2.2992531e+002  4.5125700e-018
  2.3006028e+002  4.6943300e-018
  2.3019525e+002  4.7126600e-018
  2.3033001e+002  4.7364500e-018
  2.3046478e+002  4.7830400e-018
  2.3059945e+002  4.7194600e-018
  2.3073402e+002  4.8385400e-018
  2.3086849e+002  4.8694100e-018
  2.3100295e+002  4.9964900e-018
  2.3113722e+002  4.9619000e-018
  2.3127149e+002  4.9948400e-018
  2.3140566e+002  5.0402300e-018
  2.3153983e+002  5.1207700e-018
  2.3167380e+002  5.1540500e-018
  2.3180776e+002  5.1505500e-018
  2.3194163e+002  5.1730800e-018
  2.3207540e+002  5.2858800e-018
  2.3220917e+002  5.3329800e-018
  2.3234274e+002  5.3978500e-018
  2.3247631e+002  5.4207700e-018
  2.3260977e+002  5.4158500e-018
  2.3274314e+002  5.5192500e-018
  2.3287651e+002  5.5602800e-018
  2.3300968e+002  5.6559300e-018
  2.3314285e+002  5.6702100e-018
  2.3327592e+002  5.7458800e-018
  2.3340888e+002  5.7505000e-018
  2.3354175e+002  5.7817500e-018
  2.3367462e+002  5.8490000e-018
  2.3380739e+002  5.8910700e-018
  2.3394006e+002  5.8845400e-018
  2.3407263e+002  5.9273300e-018
  2.3420520e+002  6.0294200e-018
  2.3433756e+002  6.0588900e-018
  2.3446993e+002  6.1464300e-018
  2.3460220e+002  6.2246500e-018
  2.3473437e+002  6.2427800e-018
  2.3486654e+002  6.2840300e-018
  2.3499851e+002  6.3085800e-018
  2.3513048e+002  6.3530200e-018
  2.3526234e+002  6.3684700e-018
  2.3539411e+002  6.4084300e-018
  2.3552588e+002  6.4605400e-018
  2.3565755e+002  6.5463400e-018
  2.3578902e+002  6.5849300e-018
  2.3592049e+002  6.6335100e-018
  2.3605196e+002  6.7491200e-018
  2.3618323e+002  6.7871800e-018
  2.3631449e+002  6.8282400e-018
  2.3644566e+002  6.8828300e-018
  2.3657673e+002  6.8988400e-018
  2.3670770e+002  6.9443700e-018
  2.3683867e+002  6.9993100e-018
  2.3696954e+002  7.0589500e-018
  2.3710021e+002  7.1174100e-018
  2.3723098e+002  7.1732900e-018
  2.3736154e+002  7.2043600e-018
  2.3749211e+002  7.2443800e-018
  2.3762248e+002  7.2963700e-018
  2.3775285e+002  7.3569600e-018
  2.3788322e+002  7.4083400e-018
  2.3801339e+002  7.4752500e-018
  2.3814356e+002  7.5190800e-018
  2.3827353e+002  7.5716600e-018
  2.3840360e+002  7.6163300e-018
  2.3853347e+002  7.6654700e-018
  2.3866323e+002  7.7024900e-018
  2.3879300e+002  7.7352700e-018
  2.3892267e+002  7.7566200e-018
  2.3905224e+002  7.8053400e-018
  2.3918171e+002  7.8575100e-018
  2.3931118e+002  7.9400600e-018
  2.3944055e+002  8.0204900e-018
  2.3956982e+002  8.0900600e-018
  2.3969899e+002  8.1719800e-018
  2.3982806e+002  8.2259600e-018
  2.3995712e+002  8.2760500e-018
  2.4008609e+002  8.3026100e-018
  2.4021496e+002  8.3130500e-018
  2.4034373e+002  8.3304800e-018
  2.4047250e+002  8.3622200e-018
  2.4060117e+002  8.3963100e-018
  2.4072974e+002  8.4454200e-018
  2.4085821e+002  8.5003800e-018
  2.4098668e+002  8.5571900e-018
  2.4111495e+002  8.6156500e-018
  2.4124322e+002  8.6798000e-018
  2.4137139e+002  8.7335000e-018
  2.4149956e+002  8.8136200e-018
  2.4162753e+002  8.8511800e-018
  2.4175549e+002  8.8985800e-018
  2.4188336e+002  8.9175600e-018
  2.4201123e+002  8.9341000e-018
  2.4213890e+002  8.9761600e-018
  2.4226657e+002  9.0214700e-018
  2.4239414e+002  9.0548500e-018
  2.4252161e+002  9.0915700e-018
  2.4264908e+002  9.1310900e-018
  2.4277635e+002  9.1699300e-018
  2.4290362e+002  9.2293700e-018
  2.4303089e+002  9.2967000e-018
  2.4315796e+002  9.3432700e-018
  2.4328503e+002  9.4045300e-018
  2.4341200e+002  9.4589600e-018
  2.4353887e+002  9.5231600e-018
  2.4366564e+002  9.5805300e-018
  2.4379241e+002  9.6290000e-018
  2.4391908e+002  9.6581600e-018
  2.4404564e+002  9.6741700e-018
  2.4417221e+002  9.6833200e-018
  2.4429858e+002  9.6914900e-018
  2.4442495e+002  9.6941500e-018
  2.4455122e+002  9.7089000e-018
  2.4467749e+002  9.7173200e-018
  2.4480366e+002  9.7402400e-018
  2.4492973e+002  9.8093900e-018
  2.4505570e+002  9.9053800e-018
  2.4518157e+002  1.0004600e-017
  2.4530744e+002  1.0089200e-017
  2.4543321e+002  1.0160000e-017
  2.4555888e+002  1.0210400e-017
  2.4568455e+002  1.0238900e-017
  2.4581012e+002  1.0258500e-017
  2.4593559e+002  1.0274300e-017
  2.4606096e+002  1.0273700e-017
  2.4618633e+002  1.0271100e-017
  2.4631150e+002  1.0267600e-017
  2.4643667e+002  1.0268600e-017
  2.4656184e+002  1.0281400e-017
  2.4668691e+002  1.0286900e-017
  2.4681188e+002  1.0323300e-017
  2.4693675e+002  1.0371300e-017
  2.4706152e+002  1.0438500e-017
  2.4718629e+002  1.0498600e-017
  2.4731096e+002  1.0560100e-017
  2.4743553e+002  1.0598100e-017
  2.4756010e+002  1.0630300e-017
  2.4768457e+002  1.0664100e-017
  2.4780894e+002  1.0675200e-017
  2.4793331e+002  1.0665500e-017
  2.4805748e+002  1.0640700e-017
  2.4818165e+002  1.0632000e-017
  2.4830582e+002  1.0656700e-017
  2.4842979e+002  1.0706600e-017
  2.4855376e+002  1.0786400e-017
  2.4867763e+002  1.0874100e-017
  2.4880150e+002  1.0955600e-017
  2.4892527e+002  1.1013800e-017
  2.4904894e+002  1.1032700e-017
  2.4917251e+002  1.1030400e-017
  2.4929608e+002  1.1019900e-017
  2.4941955e+002  1.1016500e-017
  2.4954292e+002  1.1043700e-017
  2.4966629e+002  1.1078800e-017
  2.4978956e+002  1.1125900e-017
  2.4991273e+002  1.1140800e-017
  2.5003590e+002  1.1146600e-017
  2.5015897e+002  1.1122300e-017
  2.5028194e+002  1.1087000e-017
  2.5040481e+002  1.1056800e-017
  2.5052768e+002  1.1031400e-017
  2.5065045e+002  1.1024700e-017
  2.5077322e+002  1.1033400e-017
  2.5089579e+002  1.1049400e-017
  2.5101836e+002  1.1071800e-017
  2.5114093e+002  1.1111400e-017
  2.5126330e+002  1.1176300e-017
  2.5138577e+002  1.1270600e-017
  2.5150804e+002  1.1383400e-017
  2.5163031e+002  1.1465600e-017
  2.5175249e+002  1.1504300e-017
  2.5187456e+002  1.1502700e-017
  2.5199663e+002  1.1464000e-017
  2.5211860e+002  1.1428800e-017
  2.5224047e+002  1.1381200e-017
  2.5236234e+002  1.1332700e-017
  2.5248411e+002  1.1293600e-017
  2.5260578e+002  1.1275200e-017
  2.5272745e+002  1.1273400e-017
  2.5284902e+002  1.1289900e-017
  2.5297059e+002  1.1318500e-017
  2.5309196e+002  1.1341800e-017
  2.5321343e+002  1.1366800e-017
  2.5333470e+002  1.1398000e-017
  2.5345597e+002  1.1443700e-017
  2.5357714e+002  1.1475900e-017
  2.5369831e+002  1.1498700e-017
  2.5381938e+002  1.1511500e-017
  2.5394035e+002  1.1508200e-017
  2.5406123e+002  1.1489100e-017
  2.5418210e+002  1.1452000e-017
  2.5430297e+002  1.1399900e-017
  2.5442374e+002  1.1345900e-017
  2.5454441e+002  1.1308800e-017
  2.5466498e+002  1.1315800e-017
  2.5478555e+002  1.1365900e-017
  2.5490602e+002  1.1441700e-017
  2.5502649e+002  1.1531200e-017
  2.5514686e+002  1.1619000e-017
  2.5526713e+002  1.1672300e-017
  2.5538740e+002  1.1678500e-017
  2.5550757e+002  1.1647900e-017
  2.5562774e+002  1.1604300e-017
  2.5574772e+002  1.1556400e-017
  2.5586779e+002  1.1504400e-017
  2.5598766e+002  1.1450600e-017
  2.5610753e+002  1.1397400e-017
  2.5622740e+002  1.1339700e-017
  2.5634717e+002  1.1273600e-017
  2.5646684e+002  1.1222900e-017
  2.5658651e+002  1.1192700e-017
  2.5670608e+002  1.1194000e-017
  2.5682555e+002  1.1217400e-017
  2.5694502e+002  1.1261700e-017
  2.5706439e+002  1.1295800e-017
  2.5718377e+002  1.1297100e-017
  2.5730304e+002  1.1269800e-017
  2.5742231e+002  1.1227900e-017
  2.5754138e+002  1.1185000e-017
  2.5766055e+002  1.1169200e-017
  2.5777962e+002  1.1150600e-017
  2.5789859e+002  1.1145100e-017
  2.5801746e+002  1.1148700e-017
  2.5813633e+002  1.1185000e-017
  2.5825520e+002  1.1255700e-017
  2.5837398e+002  1.1353500e-017
  2.5849265e+002  1.1441000e-017
  2.5861132e+002  1.1498400e-017
  2.5872989e+002  1.1504500e-017
  2.5884836e+002  1.1463300e-017
  2.5896683e+002  1.1385900e-017
  2.5908530e+002  1.1279900e-017
  2.5920367e+002  1.1141900e-017
  2.5932194e+002  1.0995400e-017
  2.5944022e+002  1.0864900e-017
  2.5955839e+002  1.0758000e-017
  2.5967656e+002  1.0694800e-017
  2.5979463e+002  1.0663100e-017
  2.5991260e+002  1.0673300e-017
  2.6003067e+002  1.0721500e-017
  2.6014854e+002  1.0804600e-017
  2.6026641e+002  1.0897400e-017
  2.6038418e+002  1.0985100e-017
  2.6050196e+002  1.1042500e-017
  2.6061973e+002  1.1063300e-017
  2.6073730e+002  1.1035700e-017
  2.6085497e+002  1.0966000e-017
  2.6097244e+002  1.0866900e-017
  2.6109001e+002  1.0754000e-017
  2.6120738e+002  1.0639700e-017
  2.6132476e+002  1.0547400e-017
  2.6144213e+002  1.0482900e-017
  2.6155940e+002  1.0445000e-017
  2.6167667e+002  1.0429600e-017
  2.6179384e+002  1.0434300e-017
  2.6191091e+002  1.0449600e-017
  2.6202798e+002  1.0478400e-017
  2.6214505e+002  1.0511100e-017
  2.6226203e+002  1.0550800e-017
  2.6237900e+002  1.0572400e-017
  2.6249587e+002  1.0550400e-017
  2.6261264e+002  1.0484000e-017
  2.6272941e+002  1.0379000e-017
  2.6284618e+002  1.0258400e-017
  2.6296285e+002  1.0137900e-017
  2.6307943e+002  1.0030100e-017
  2.6319600e+002  9.9484500e-018
  2.6331257e+002  9.8982200e-018
  2.6342904e+002  9.8545100e-018
  2.6354541e+002  9.8333500e-018
  2.6366178e+002  9.8481000e-018
  2.6377815e+002  9.8792700e-018
  2.6389443e+002  9.9167700e-018
  2.6401070e+002  9.9565100e-018
  2.6412687e+002  9.9807700e-018
  2.6424304e+002  9.9950800e-018
  2.6435911e+002  9.9955800e-018
  2.6447518e+002  9.9752300e-018
  2.6459116e+002  9.9190100e-018
  2.6470713e+002  9.8214800e-018
  2.6482300e+002  9.7022900e-018
  2.6493887e+002  9.5828800e-018
  2.6505464e+002  9.5108500e-018
  2.6517041e+002  9.4904400e-018
  2.6528618e+002  9.5004600e-018
  2.6540186e+002  9.5247500e-018
  2.6551743e+002  9.5338800e-018
  2.6563310e+002  9.5267100e-018
  2.6574857e+002  9.4938300e-018
  2.6586414e+002  9.4419500e-018
  2.6597951e+002  9.3744700e-018
  2.6609499e+002  9.2997300e-018
  2.6621036e+002  9.2331500e-018
  2.6632563e+002  9.1827800e-018
  2.6644090e+002  9.1357000e-018
  2.6655617e+002  9.0747500e-018
  2.6667134e+002  8.9934300e-018
  2.6678652e+002  8.8881700e-018
  2.6690159e+002  8.7830100e-018
  2.6701666e+002  8.7055100e-018
  2.6713173e+002  8.6865400e-018
  2.6724670e+002  8.7155100e-018
  2.6736158e+002  8.7773000e-018
  2.6747645e+002  8.8240000e-018
  2.6759132e+002  8.8351100e-018
  2.6770619e+002  8.8061200e-018
  2.6782096e+002  8.7466800e-018
  2.6793563e+002  8.6769100e-018
  2.6805031e+002  8.5904100e-018
  2.6816498e+002  8.5016700e-018
  2.6827965e+002  8.4062400e-018
  2.6839422e+002  8.3173000e-018
  2.6850869e+002  8.2404800e-018
  2.6862316e+002  8.1803200e-018
  2.6873764e+002  8.1260800e-018
  2.6885201e+002  8.0650700e-018
  2.6896638e+002  8.0038700e-018
  2.6908075e+002  7.9522900e-018
  2.6919502e+002  7.9357000e-018
  2.6930930e+002  7.9544500e-018
  2.6942357e+002  8.0045700e-018
  2.6953774e+002  8.0547700e-018
  2.6965181e+002  8.0805200e-018
  2.6976598e+002  8.0546300e-018
  2.6988006e+002  7.9892300e-018
  2.6999403e+002  7.8997900e-018
  2.7010800e+002  7.8113900e-018
  2.7022197e+002  7.7252200e-018
  2.7033594e+002  7.6439200e-018
  2.7044982e+002  7.5667900e-018
  2.7056359e+002  7.4972500e-018
  2.7067746e+002  7.4346200e-018
  2.7079123e+002  7.3832400e-018
  2.7090490e+002  7.3437000e-018
  2.7101867e+002  7.3117900e-018
  2.7113235e+002  7.2701500e-018
  2.7124592e+002  7.2297100e-018
  2.7135959e+002  7.1912600e-018
  2.7147316e+002  7.1690400e-018
  2.7158663e+002  7.1542900e-018
  2.7170011e+002  7.1478800e-018
  2.7181358e+002  7.1292200e-018
  2.7192705e+002  7.0916000e-018
  2.7204042e+002  7.0284100e-018
  2.7215379e+002  6.9500300e-018
  2.7226707e+002  6.8809900e-018
  2.7238044e+002  6.8316500e-018
  2.7249371e+002  6.7886400e-018
  2.7260688e+002  6.7386800e-018
  2.7272006e+002  6.6817900e-018
  2.7283323e+002  6.6328700e-018
  2.7294640e+002  6.5938600e-018
  2.7305947e+002  6.5711300e-018
  2.7317254e+002  6.5383400e-018
  2.7328562e+002  6.4821100e-018
  2.7339859e+002  6.4138900e-018
  2.7351156e+002  6.3429200e-018
  2.7362453e+002  6.2709100e-018
  2.7373740e+002  6.2015600e-018
  2.7385038e+002  6.1319100e-018
  2.7396315e+002  6.0604900e-018
  2.7407602e+002  5.9836100e-018
  2.7418879e+002  5.9127000e-018
  2.7430156e+002  5.8661300e-018
  2.7441434e+002  5.8500900e-018
  2.7452701e+002  5.8586000e-018
  2.7463968e+002  5.8653200e-018
  2.7475235e+002  5.8586000e-018
  2.7486493e+002  5.8333600e-018
  2.7497760e+002  5.7940700e-018
  2.7509007e+002  5.7440000e-018
  2.7520264e+002  5.6843400e-018
  2.7531511e+002  5.6222100e-018
  2.7542769e+002  5.5579800e-018
  2.7554006e+002  5.4994700e-018
  2.7565253e+002  5.4384300e-018
  2.7576490e+002  5.3852900e-018
  2.7587727e+002  5.3466100e-018
  2.7598965e+002  5.3239700e-018
  2.7610192e+002  5.3093900e-018
  2.7621429e+002  5.2804300e-018
  2.7632656e+002  5.2342800e-018
  2.7643874e+002  5.1716500e-018
  2.7655101e+002  5.1159900e-018
  2.7666318e+002  5.0751300e-018
  2.7677535e+002  5.0399800e-018
  2.7688742e+002  5.0054700e-018
  2.7699960e+002  4.9725600e-018
  2.7711167e+002  4.9489700e-018
  2.7722374e+002  4.9278400e-018
  2.7733581e+002  4.8997700e-018
  2.7744779e+002  4.8539600e-018
  2.7755976e+002  4.7978500e-018
  2.7767173e+002  4.7393300e-018
  2.7778370e+002  4.6743200e-018
  2.7789567e+002  4.6157800e-018
  2.7800755e+002  4.5679200e-018
  2.7811942e+002  4.5295000e-018
  2.7823129e+002  4.4965600e-018
  2.7834306e+002  4.4651300e-018
  2.7845494e+002  4.4274600e-018
  2.7856671e+002  4.3914500e-018
  2.7867848e+002  4.3531400e-018
  2.7879015e+002  4.3111300e-018
  2.7890193e+002  4.2584600e-018
  2.7901360e+002  4.2062100e-018
  2.7912527e+002  4.1606000e-018
  2.7923694e+002  4.1257300e-018
  2.7934861e+002  4.1003700e-018
  2.7946019e+002  4.0818700e-018
  2.7957176e+002  4.0691100e-018
  2.7968333e+002  4.0511700e-018
  2.7979490e+002  4.0240000e-018
  2.7990648e+002  3.9853000e-018
  2.8001795e+002  3.9296900e-018
  2.8012942e+002  3.8586600e-018
  2.8024089e+002  3.7960000e-018
  2.8035237e+002  3.7455500e-018
  2.8046384e+002  3.7021100e-018
  2.8057521e+002  3.6672700e-018
  2.8068658e+002  3.6415800e-018
  2.8079805e+002  3.6226600e-018
  2.8090933e+002  3.6059600e-018
  2.8102070e+002  3.5803800e-018
  2.8113207e+002  3.5377800e-018
  2.8124334e+002  3.4779200e-018
  2.8135462e+002  3.4100300e-018
  2.8146589e+002  3.3482400e-018
  2.8157716e+002  3.2915100e-018
  2.8168833e+002  3.2442800e-018
  2.8179961e+002  3.2105800e-018
  2.8191078e+002  3.1830700e-018
  2.8202195e+002  3.1647100e-018
  2.8213312e+002  3.1530200e-018
  2.8224430e+002  3.1367300e-018
  2.8235547e+002  3.1062200e-018
  2.8246654e+002  3.0681900e-018
  2.8257761e+002  3.0253500e-018
  2.8268869e+002  2.9869500e-018
  2.8279976e+002  2.9600900e-018
  2.8291083e+002  2.9440800e-018
  2.8302190e+002  2.9363800e-018
  2.8313287e+002  2.9407800e-018
  2.8324395e+002  2.9398000e-018
  2.8335492e+002  2.9302800e-018
  2.8346589e+002  2.8988800e-018
  2.8357686e+002  2.8470000e-018
  2.8368784e+002  2.7848900e-018
  2.8379871e+002  2.7277900e-018
  2.8390968e+002  2.6741700e-018
  2.8402055e+002  2.6257100e-018
  2.8413143e+002  2.5900700e-018
  2.8424240e+002  2.5695600e-018
  2.8435317e+002  2.5491400e-018
  2.8446404e+002  2.5292000e-018
  2.8457492e+002  2.5000300e-018
  2.8468569e+002  2.4757100e-018
  2.8479656e+002  2.4527800e-018
  2.8490733e+002  2.4221800e-018
  2.8501811e+002  2.3837700e-018
  2.8512888e+002  2.3435200e-018
  2.8523965e+002  2.3036600e-018
  2.8535042e+002  2.2705900e-018
  2.8546119e+002  2.2477500e-018
  2.8557187e+002  2.2343500e-018
  2.8568264e+002  2.2241400e-018
  2.8579331e+002  2.2120600e-018
  2.8590398e+002  2.1945700e-018
  2.8601466e+002  2.1739500e-018
  2.8612533e+002  2.1460900e-018
  2.8623600e+002  2.1178700e-018
  2.8634667e+002  2.0931100e-018
  2.8645725e+002  2.0658500e-018
  2.8656792e+002  2.0352300e-018
  2.8667849e+002  2.0122500e-018
  2.8678916e+002  1.9916400e-018
  2.8689974e+002  1.9780600e-018
  2.8701031e+002  1.9628800e-018
  2.8712088e+002  1.9523800e-018
  2.8723145e+002  1.9279600e-018
  2.8734203e+002  1.9006800e-018
  2.8745260e+002  1.8708200e-018
  2.8756307e+002  1.8338000e-018
  2.8767364e+002  1.7982700e-018
  2.8778412e+002  1.7636500e-018
  2.8789469e+002  1.7337900e-018
  2.8800516e+002  1.7086400e-018
  2.8811563e+002  1.6869300e-018
  2.8822611e+002  1.6667200e-018
  2.8833658e+002  1.6497500e-018
  2.8844705e+002  1.6350600e-018
  2.8855752e+002  1.6197700e-018
  2.8866799e+002  1.6018600e-018
  2.8877837e+002  1.5817300e-018
  2.8888884e+002  1.5607700e-018
  2.8899921e+002  1.5414000e-018
  2.8910968e+002  1.5226200e-018
  2.8922006e+002  1.5036700e-018
  2.8933043e+002  1.4833300e-018
  2.8944090e+002  1.4611400e-018
  2.8955127e+002  1.4390200e-018
  2.8966165e+002  1.4190600e-018
  2.8977202e+002  1.4035900e-018
  2.8988239e+002  1.3907300e-018
  2.8999276e+002  1.3769900e-018
  2.9010304e+002  1.3614400e-018
  2.9021341e+002  1.3447800e-018
  2.9032378e+002  1.3304300e-018
  2.9043405e+002  1.3179700e-018
  2.9054443e+002  1.3044800e-018
  2.9065470e+002  1.2899200e-018
  2.9076507e+002  1.2732500e-018
  2.9087534e+002  1.2552300e-018
  2.9098562e+002  1.2366200e-018
  2.9109589e+002  1.2175000e-018
  2.9120626e+002  1.1977800e-018
  2.9131653e+002  1.1775400e-018
  2.9142681e+002  1.1548600e-018
  2.9153708e+002  1.1313000e-018
  2.9164735e+002  1.1092500e-018
  2.9175752e+002  1.0928700e-018
  2.9186780e+002  1.0792400e-018
  2.9197807e+002  1.0657600e-018
  2.9208834e+002  1.0513000e-018
  2.9219851e+002  1.0383900e-018
  2.9230878e+002  1.0292200e-018
  2.9241906e+002  1.0220200e-018
  2.9252923e+002  1.0156300e-018
  2.9263950e+002  1.0070600e-018
  2.9274967e+002  9.9549700e-019
  2.9285985e+002  9.8106500e-019
  2.9297012e+002  9.6452900e-019
  2.9308029e+002  9.4762000e-019
  2.9319046e+002  9.3158400e-019
  2.9330064e+002  9.1572500e-019
  2.9341091e+002  8.9834600e-019
  2.9352108e+002  8.8168700e-019
  2.9363125e+002  8.6560900e-019
  2.9374143e+002  8.5198000e-019
  2.9385160e+002  8.4093500e-019
  2.9396177e+002  8.3369800e-019
  2.9407194e+002  8.2739800e-019
  2.9418212e+002  8.1975300e-019
  2.9429219e+002  8.0961900e-019
  2.9440236e+002  8.0012900e-019
  2.9451253e+002  7.9141200e-019
  2.9462271e+002  7.8162800e-019
  2.9473278e+002  7.6978800e-019
  2.9484295e+002  7.5910000e-019
  2.9495312e+002  7.4770700e-019
  2.9506319e+002  7.3483400e-019
  2.9517337e+002  7.2010300e-019
  2.9528354e+002  7.0565700e-019
  2.9539361e+002  6.9116600e-019
  2.9550378e+002  6.7939000e-019
  2.9561386e+002  6.7085700e-019
  2.9572393e+002  6.6387800e-019
  2.9583410e+002  6.5516000e-019
  2.9594417e+002  6.4508300e-019
  2.9605435e+002  6.3231900e-019
  2.9616442e+002  6.1897500e-019
  2.9627449e+002  6.0779200e-019
  2.9638456e+002  6.0126900e-019
  2.9649474e+002  5.9708200e-019
  2.9660481e+002  5.9434000e-019
  2.9671488e+002  5.8956800e-019
  2.9682495e+002  5.8222800e-019
  2.9693503e+002  5.7190400e-019
  2.9704510e+002  5.6007700e-019
  2.9715527e+002  5.4947700e-019
  2.9726534e+002  5.3989400e-019
  2.9737541e+002  5.3107100e-019
  2.9748549e+002  5.2114700e-019
  2.9759556e+002  5.1194800e-019
  2.9770563e+002  5.0344900e-019
  2.9781570e+002  4.9585100e-019
  2.9792568e+002  4.8739100e-019
  2.9803575e+002  4.8030500e-019
  2.9814582e+002  4.7466900e-019
  2.9825589e+002  4.6873400e-019
  2.9836597e+002  4.6245900e-019
  2.9847604e+002  4.5692700e-019
  2.9858611e+002  4.5266200e-019
  2.9869608e+002  4.4903200e-019
  2.9880616e+002  4.4410900e-019
  2.9891623e+002  4.3827700e-019
  2.9902630e+002  4.3009100e-019
  2.9913627e+002  4.2130700e-019
  2.9924634e+002  4.1198200e-019
  2.9935642e+002  4.0311400e-019
  2.9946639e+002  3.9504800e-019
  2.9957646e+002  3.8738600e-019
  2.9968643e+002  3.8164900e-019
  2.9979651e+002  3.7782600e-019
  2.9990648e+002  3.7441500e-019
  3.0001655e+002  3.7018900e-019
  3.0012652e+002  3.6539000e-019
  3.0023660e+002  3.6023500e-019
  3.0034657e+002  3.5561400e-019
  3.0045664e+002  3.5145000e-019
  3.0056661e+002  3.4735000e-019
  3.0067669e+002  3.4203300e-019
  3.0078666e+002  3.3578700e-019
  3.0089663e+002  3.2828400e-019
  3.0100670e+002  3.2066100e-019
  3.0111667e+002  3.1445900e-019
  3.0122665e+002  3.0868000e-019
  3.0133662e+002  3.0334600e-019
  3.0144669e+002  2.9904500e-019
  3.0155666e+002  2.9525600e-019
  3.0166664e+002  2.9250800e-019
  3.0177661e+002  2.9109400e-019
  3.0188658e+002  2.8884100e-019
  3.0199655e+002  2.8498800e-019
  3.0210653e+002  2.8208900e-019
  3.0221650e+002  2.7777600e-019
  3.0232647e+002  2.7350400e-019
  3.0243644e+002  2.6843000e-019
  3.0254641e+002  2.6312000e-019
  3.0265639e+002  2.5768900e-019
  3.0276636e+002  2.5193200e-019
  3.0287633e+002  2.4637100e-019
  3.0298630e+002  2.4142800e-019
  3.0309628e+002  2.3725300e-019
  3.0320625e+002  2.3383000e-019
  3.0331612e+002  2.3077200e-019
  3.0342609e+002  2.2814600e-019
  3.0353607e+002  2.2566200e-019
  3.0364594e+002  2.2347600e-019
  3.0375591e+002  2.2235600e-019
  3.0386588e+002  2.2165300e-019
  3.0397575e+002  2.2071400e-019
  3.0408573e+002  2.1797100e-019
  3.0419560e+002  2.1409500e-019
  3.0430557e+002  2.1036100e-019
  3.0441544e+002  2.0695200e-019
  3.0452542e+002  2.0311400e-019
  3.0463529e+002  1.9855900e-019
  3.0474516e+002  1.9359400e-019
  3.0485513e+002  1.8891500e-019
  3.0496501e+002  1.8443800e-019
  3.0507488e+002  1.8022800e-019
  3.0518475e+002  1.7660700e-019
  3.0529462e+002  1.7338900e-019
  3.0540449e+002  1.7101600e-019
  3.0551437e+002  1.6964200e-019
  3.0562424e+002  1.6912900e-019
  3.0573411e+002  1.6809700e-019
  3.0584398e+002  1.6641300e-019
  3.0595386e+002  1.6456000e-019
  3.0606373e+002  1.6353300e-019
  3.0617350e+002  1.6324800e-019
  3.0628337e+002  1.6241400e-019
  3.0639324e+002  1.5992200e-019
  3.0650302e+002  1.5632500e-019
  3.0661289e+002  1.5322200e-019
  3.0672266e+002  1.5041000e-019
  3.0683253e+002  1.4732900e-019
  3.0694231e+002  1.4338100e-019
  3.0705208e+002  1.3915600e-019
  3.0716185e+002  1.3528900e-019
  3.0727172e+002  1.3211500e-019
  3.0738150e+002  1.2946600e-019
  3.0749127e+002  1.2703300e-019
  3.0760104e+002  1.2533300e-019
  3.0771081e+002  1.2456500e-019
  3.0782048e+002  1.2438600e-019
  3.0793026e+002  1.2415600e-019
  3.0804003e+002  1.2377400e-019
  3.0814980e+002  1.2302600e-019
  3.0825947e+002  1.2097300e-019
  3.0836925e+002  1.1809400e-019
  3.0847892e+002  1.1650000e-019
  3.0858859e+002  1.1636800e-019
  3.0869836e+002  1.1622100e-019
  3.0880804e+002  1.1505200e-019
  3.0891771e+002  1.1344000e-019
  3.0902738e+002  1.1190400e-019
  3.0913705e+002  1.0945500e-019
  3.0924672e+002  1.0682100e-019
  3.0935630e+002  1.0307500e-019
  3.0946597e+002  9.8358700e-020
  3.0957564e+002  9.5037100e-020
  3.0968521e+002  9.2924500e-020
  3.0979489e+002  9.1955600e-020
  3.0990446e+002  9.1268600e-020
  3.1001403e+002  9.0564500e-020
  3.1012360e+002  9.0864800e-020
  3.1023317e+002  9.1283200e-020
  3.1034275e+002  8.9984600e-020
  3.1045232e+002  8.7871200e-020
  3.1056189e+002  8.5972700e-020
  3.1067136e+002  8.5171500e-020
  3.1078094e+002  8.4072800e-020
  3.1089041e+002  8.2760000e-020
  3.1099988e+002  8.1940800e-020
  3.1110935e+002  8.1092000e-020
  3.1121883e+002  8.1478200e-020
  3.1132830e+002  8.1978600e-020
  3.1143777e+002  8.0852200e-020
  3.1154724e+002  7.8820800e-020
  3.1165661e+002  7.6936800e-020
  3.1173929e+002  6.7684200e-020
  3.1185396e+002  6.5165100e-020
  3.1196874e+002  6.3272700e-020
  3.1208341e+002  6.1810800e-020
  3.1219808e+002  6.0741600e-020
  3.1231275e+002  5.9381200e-020
  3.1242742e+002  5.7844500e-020
  3.1254199e+002  5.6464200e-020
  3.1265656e+002  5.5407400e-020
  3.1277123e+002  5.4740600e-020
  3.1288570e+002  5.4468800e-020
  3.1300027e+002  5.4086800e-020
  3.1311475e+002  5.3891500e-020
  3.1322932e+002  5.4879900e-020
  3.1334379e+002  5.6843400e-020
  3.1345826e+002  5.8043500e-020
  3.1357263e+002  5.7689000e-020
  3.1368710e+002  5.6061200e-020
  3.1380147e+002  5.3962600e-020
  3.1391584e+002  5.1773000e-020
  3.1403011e+002  4.9563200e-020
  3.1414448e+002  4.7223500e-020
  3.1425876e+002  4.4823800e-020
  3.1437303e+002  4.2456600e-020
  3.1448730e+002  4.0595000e-020
  3.1460157e+002  3.9662000e-020
  3.1471574e+002  3.9746400e-020
  3.1483001e+002  4.0032500e-020
  3.1494418e+002  3.9781400e-020
  3.1505835e+002  3.9293100e-020
  3.1517242e+002  3.9511900e-020
  3.1528660e+002  4.1079700e-020
  3.1540067e+002  4.3626800e-020
  3.1551474e+002  4.5131500e-020
  3.1562881e+002  4.4346900e-020
  3.1574278e+002  4.2009000e-020
  3.1585675e+002  3.9325300e-020
  3.1597072e+002  3.6874100e-020
  3.1608469e+002  3.5236100e-020
  3.1619866e+002  3.4186200e-020
  3.1631254e+002  3.3240300e-020
  3.1642651e+002  3.1918500e-020
  3.1654038e+002  3.0537600e-020
  3.1665415e+002  2.9368600e-020
  3.1676802e+002  2.9251500e-020
  3.1688179e+002  3.0347100e-020
  3.1699556e+002  3.1842800e-020
  3.1710933e+002  3.2197000e-020
  3.1722310e+002  3.1578800e-020
  3.1733678e+002  3.1204100e-020
  3.1745055e+002  3.2498200e-020
  3.1756422e+002  3.4166300e-020
  3.1767779e+002  3.4021000e-020
  3.1779146e+002  3.1956200e-020
  3.1790503e+002  3.0008700e-020
  3.1801860e+002  2.8770800e-020
  3.1813217e+002  2.7447300e-020
  3.1824574e+002  2.5421900e-020
  3.1835922e+002  2.3435600e-020
  3.1847279e+002  2.1998300e-020
  3.1858626e+002  2.1229900e-020
  3.1869963e+002  2.0579500e-020
  3.1881310e+002  1.9819500e-020
  3.1892647e+002  1.8961200e-020
  3.1903984e+002  1.8564000e-020
  3.1915321e+002  1.9311700e-020
  3.1926659e+002  2.1676900e-020
  3.1937986e+002  2.4362600e-020
  3.1949313e+002  2.5426200e-020
  3.1960640e+002  2.4665300e-020
  3.1971967e+002  2.3918500e-020
  3.1983284e+002  2.4735700e-020
  3.1994611e+002  2.6344700e-020
  3.2005928e+002  2.6031800e-020
  3.2017246e+002  2.3859700e-020
  3.2028553e+002  2.1272400e-020
  3.2039860e+002  1.9370800e-020
  3.2051177e+002  1.8193100e-020
  3.2062474e+002  1.7009100e-020
  3.2073781e+002  1.5440300e-020
  3.2085088e+002  1.3947000e-020
  3.2096385e+002  1.2834900e-020
  3.2107683e+002  1.2334100e-020
  3.2118970e+002  1.2380400e-020
  3.2130267e+002  1.2712000e-020
  3.2141554e+002  1.2843400e-020
  3.2152841e+002  1.2668000e-020
  3.2164128e+002  1.2672400e-020
  3.2175415e+002  1.3931000e-020
  3.2186692e+002  1.6951400e-020
  3.2197970e+002  1.9968400e-020
  3.2209247e+002  2.0515200e-020
  3.2220524e+002  1.9149000e-020
  3.2231791e+002  1.7554800e-020
  3.2243058e+002  1.7358000e-020
  3.2254325e+002  1.8750200e-020
  3.2265592e+002  1.9509400e-020
  3.2276860e+002  1.8267000e-020
  3.2288117e+002  1.6171400e-020
  3.2299374e+002  1.4030300e-020
  3.2310631e+002  1.2169300e-020
  3.2321878e+002  1.0639700e-020
  3.2333135e+002  9.4395100e-021
  3.2344382e+002  8.4495800e-021
  3.2355629e+002  7.6502600e-021
  3.2366867e+002  7.0141800e-021
  3.2378114e+002  6.6635800e-021
  3.2389351e+002  6.7531100e-021
  3.2400588e+002  7.4654300e-021
  3.2411825e+002  8.3849800e-021
  3.2423052e+002  8.8655800e-021
  3.2434289e+002  8.8681800e-021
  3.2445517e+002  8.9216500e-021
  3.2456734e+002  9.8545600e-021
  3.2467961e+002  1.2470900e-020
  3.2479178e+002  1.4981600e-020
  3.2490405e+002  1.5230900e-020
  3.2501612e+002  1.3878800e-020
  3.2512829e+002  1.2275000e-020
  3.2524047e+002  1.1128400e-020
  3.2535254e+002  1.1083200e-020
  3.2546461e+002  1.1469500e-020
  3.2557658e+002  1.1065700e-020
  3.2568865e+002  9.9176800e-021
  3.2580062e+002  8.6604900e-021
  3.2591259e+002  7.5060000e-021
  3.2602457e+002  6.5577800e-021
  3.2613654e+002  5.8156500e-021
  3.2624841e+002  5.2944400e-021
  3.2636028e+002  4.9238300e-021
  3.2647215e+002  4.6168500e-021
  3.2658402e+002  4.3290400e-021
  3.2669580e+002  4.1470600e-021
  3.2680757e+002  4.2158800e-021
  3.2691934e+002  4.8786100e-021
  3.2703111e+002  6.0415700e-021
  3.2714288e+002  6.8896900e-021
  3.2725455e+002  6.9543100e-021
  3.2736622e+002  6.5910900e-021
  3.2747790e+002  6.2998700e-021
  3.2758957e+002  6.7996800e-021
  3.2770114e+002  8.5608700e-021
  3.2781271e+002  1.0559900e-020
  3.2792428e+002  1.1260100e-020
  3.2803585e+002  1.0599700e-020
  3.2814733e+002  9.3393500e-021
  3.2825880e+002  8.0462600e-021
  3.2837027e+002  6.8729000e-021
  3.2848174e+002  5.8738000e-021
  3.2859321e+002  5.0184200e-021
  3.2870458e+002  4.3073700e-021
  3.2881595e+002  3.7243000e-021
  3.2892733e+002  3.2654600e-021
  3.2903870e+002  2.8902200e-021
  3.2914997e+002  2.6066500e-021
  3.2926124e+002  2.4156700e-021
  3.2937251e+002  2.3657300e-021
  3.2948378e+002  2.4427500e-021
  3.2959506e+002  2.5272400e-021
  3.2970623e+002  2.5218800e-021
  3.2981740e+002  2.4805300e-021
  3.2992857e+002  2.5712500e-021
  3.3003974e+002  3.0964800e-021
  3.3015081e+002  4.2944900e-021
  3.3026189e+002  5.4524200e-021
  3.3037296e+002  5.7361600e-021
  3.3048403e+002  5.3989500e-021
  3.3059500e+002  4.9235600e-021
  3.3070607e+002  4.6474100e-021
  3.3081704e+002  4.9864100e-021
  3.3092792e+002  6.0674700e-021
  3.3103889e+002  6.7916300e-021
  3.3114976e+002  6.5625700e-021
  3.3126073e+002  5.8449800e-021
  3.3137160e+002  5.0515800e-021
  3.3148237e+002  4.3189400e-021
  3.3159325e+002  3.6949400e-021
  3.3170402e+002  3.1595100e-021
  3.3181479e+002  2.7099500e-021
  3.3192556e+002  2.3362400e-021
  3.3203633e+002  2.0399700e-021
  3.3214700e+002  1.7993800e-021
  3.3225768e+002  1.6137000e-021
  3.3236835e+002  1.4641000e-021
  3.3247902e+002  1.3760700e-021
  3.3258959e+002  1.3595200e-021
  3.3270026e+002  1.4783900e-021
  3.3281083e+002  1.7189200e-021
  3.3292141e+002  1.9243000e-021
  3.3303188e+002  2.0002000e-021
  3.3314245e+002  1.9987500e-021
  3.3325292e+002  2.0234800e-021
  3.3336339e+002  2.3049300e-021
  3.3347387e+002  3.1812400e-021
  3.3358424e+002  4.3030900e-021
  3.3369471e+002  4.7611700e-021
  3.3380508e+002  4.5423600e-021
  3.3391545e+002  4.0369800e-021
  3.3402582e+002  3.4868000e-021
  3.3413610e+002  2.9812400e-021
  3.3424637e+002  2.5597800e-021
  3.3435674e+002  2.2227000e-021
  3.3446691e+002  1.9980500e-021
  3.3457718e+002  1.8274000e-021
  3.3468736e+002  1.6501900e-021
  3.3479763e+002  1.4564900e-021
  3.3490780e+002  1.2703300e-021
  3.3501797e+002  1.1090000e-021
  3.3512804e+002  9.7506800e-022
  3.3523821e+002  8.7088400e-022
  3.3534829e+002  8.0653400e-022
  3.3545836e+002  7.7494400e-022
  3.3556833e+002  7.6542700e-022
  3.3567840e+002  7.5472000e-022
  3.3578837e+002  7.3103700e-022
  3.3589835e+002  7.2000100e-022
  3.3600832e+002  7.5628200e-022
  3.3611829e+002  8.8179300e-022
  3.3622826e+002  1.1559600e-021
  3.3633813e+002  1.5193200e-021
  3.3644800e+002  1.7367900e-021
  3.3655788e+002  1.7235200e-021
  3.3666775e+002  1.6288300e-021
  3.3677752e+002  1.5689300e-021
  3.3688729e+002  1.6688500e-021
  3.3699716e+002  2.1059000e-021
  3.3710684e+002  2.8318200e-021
  3.3721661e+002  3.2137000e-021
  3.3732638e+002  3.0871600e-021
  3.3743605e+002  2.7541000e-021
  3.3754572e+002  2.3991500e-021
  3.3765540e+002  2.0563300e-021
  3.3776497e+002  1.7601000e-021
  3.3787464e+002  1.5005600e-021
  3.3798421e+002  1.2786200e-021
  3.3809378e+002  1.0898200e-021
  3.3820336e+002  9.3046200e-022
  3.3831293e+002  7.9758700e-022
  3.3842240e+002  6.9478000e-022
  3.3853197e+002  6.1355000e-022
  3.3864144e+002  5.5881600e-022
  3.3875092e+002  5.1890300e-022
  3.3886029e+002  4.9122500e-022
  3.3896976e+002  4.7300400e-022
  3.3907913e+002  4.7115900e-022
  3.3918850e+002  5.0519100e-022
  3.3929788e+002  5.6136300e-022
  3.3940725e+002  5.9197000e-022
  3.3951652e+002  5.9099400e-022
  3.3962589e+002  5.9000500e-022
  3.3973516e+002  6.3316100e-022
  3.3984444e+002  8.0811300e-022
  3.3995361e+002  1.1802300e-021
  3.4006288e+002  1.5292000e-021
  3.4017205e+002  1.6040000e-021
  3.4028132e+002  1.4880900e-021
  3.4039050e+002  1.3169100e-021
  3.4049957e+002  1.1370300e-021
  3.4060874e+002  9.7407100e-022
  3.4071781e+002  8.3165200e-022
  3.4082698e+002  7.1198600e-022
  3.4093606e+002  6.0963700e-022
  3.4104513e+002  5.2454900e-022
  3.4115410e+002  4.5476700e-022
  3.4126317e+002  3.9912200e-022
  3.4137214e+002  3.5268900e-022
  3.4148112e+002  3.1596300e-022
  3.4159009e+002  2.8889900e-022
  3.4169906e+002  2.7059900e-022
  3.4180803e+002  2.6136000e-022
  3.4191690e+002  2.5579600e-022
  3.4202578e+002  2.4932000e-022
  3.4213465e+002  2.3605600e-022
  3.4224352e+002  2.1822600e-022
  3.4235239e+002  2.0225200e-022
  3.4246116e+002  1.9313300e-022
  3.4257004e+002  1.8939200e-022
  3.4267881e+002  2.0105300e-022
  3.4278758e+002  2.2599600e-022
  3.4289635e+002  2.6384800e-022
  3.4300502e+002  3.3053100e-022
  3.4311380e+002  4.0737800e-022
  3.4322247e+002  4.4310100e-022
  3.4333114e+002  4.3885700e-022
  3.4343981e+002  4.3319900e-022
  3.4354849e+002  4.5312700e-022
  3.4365706e+002  5.5187700e-022
  3.4376573e+002  8.1419000e-022
  3.4387430e+002  1.1324500e-021
  3.4398287e+002  1.2530000e-021
  3.4409145e+002  1.1934500e-021
  3.4420002e+002  1.0663500e-021
  3.4430849e+002  9.2925100e-022
  3.4441706e+002  7.9702100e-022
  3.4452553e+002  6.8171000e-022
  3.4463401e+002  5.8313200e-022
  3.4474248e+002  5.0049400e-022
  3.4485095e+002  4.3124300e-022
  3.4495932e+002  3.7307500e-022
  3.4506770e+002  3.2465600e-022
  3.4517617e+002  2.8702900e-022
  3.4528454e+002  2.5946600e-022
  3.4539291e+002  2.3838100e-022
  3.4550118e+002  2.2537600e-022
  3.4560956e+002  2.1579600e-022
  3.4571783e+002  2.0170900e-022
  3.4582620e+002  1.8374800e-022
  3.4593447e+002  1.6467900e-022
  3.4604274e+002  1.4893200e-022
  3.4615092e+002  1.3747400e-022
  3.4625919e+002  1.3133700e-022
  3.4636736e+002  1.2858900e-022
  3.4647563e+002  1.2680200e-022
  3.4658381e+002  1.2541200e-022
  3.4669198e+002  1.2777000e-022
  3.4680015e+002  1.3929100e-022
  3.4690822e+002  1.7477400e-022
  3.4701639e+002  2.5753700e-022
  3.4712447e+002  3.5831100e-022
  3.4723254e+002  3.9470000e-022
  3.4734061e+002  3.7445000e-022
  3.4744868e+002  3.3443500e-022
  3.4755676e+002  2.9202400e-022
  3.4766483e+002  2.5167800e-022
  3.4777280e+002  2.1622900e-022
  3.4788087e+002  1.8550900e-022
  3.4798884e+002  1.5957500e-022
  3.4809682e+002  1.3814200e-022
  3.4820479e+002  1.2029300e-022
  3.4831266e+002  1.0595400e-022
  3.4842063e+002  9.5719000e-023
  3.4852851e+002  8.8528900e-023
  3.4863648e+002  8.2777900e-023
  3.4874435e+002  7.5833800e-023
  3.4885222e+002  6.8970100e-023
  3.4896000e+002  6.2898900e-023
  3.4906787e+002  5.8539600e-023
  3.4917574e+002  5.7164500e-023
  3.4928351e+002  6.1943100e-023
  3.4939128e+002  6.9178100e-023
  3.4949916e+002  7.1622100e-023
  3.4960693e+002  6.9237500e-023
  3.4971460e+002  6.5582300e-023
  3.4982237e+002  6.2244200e-023
  3.4993015e+002  6.0553500e-023
  3.5003782e+002  6.1107500e-023
  3.5014559e+002  6.3387900e-023
  3.5025326e+002  6.4999000e-023
  3.5036093e+002  6.6849500e-023
  3.5046861e+002  6.9707100e-023
  3.5057618e+002  7.3304400e-023
  3.5068385e+002  7.6484300e-023
  3.5079152e+002  8.0613900e-023
  3.5089910e+002  8.9292200e-023
  3.5100667e+002  1.1120100e-022
  3.5111424e+002  1.6392500e-022
  3.5122181e+002  2.5822800e-022
  3.5132939e+002  3.4072500e-022
  3.5143696e+002  3.6025800e-022
  3.5154453e+002  3.3864300e-022
  3.5165200e+002  3.0377900e-022
  3.5175947e+002  2.6558900e-022
  3.5186705e+002  2.2981000e-022
  3.5197452e+002  1.9727100e-022
  3.5208199e+002  1.6993900e-022
  3.5218936e+002  1.4756200e-022
  3.5229684e+002  1.3120900e-022
  3.5240431e+002  1.1999100e-022
  3.5251168e+002  1.1068900e-022
  3.5261915e+002  1.0056800e-022
  3.5272653e+002  8.9373900e-023
  3.5283390e+002  7.8644600e-023
  3.5294127e+002  6.9412600e-023
  3.5304864e+002  6.1347500e-023
  3.5315602e+002  5.5404400e-023
  3.5326329e+002  5.1181900e-023
  3.5337066e+002  4.7063700e-023
  3.5347793e+002  4.2614300e-023
  3.5358530e+002  3.8678200e-023
  3.5369258e+002  3.5073000e-023
  3.5379985e+002  3.2090000e-023
  3.5390712e+002  2.9810000e-023
  3.5401439e+002  2.8174300e-023
  3.5412157e+002  2.7316500e-023
  3.5422884e+002  2.7409900e-023
  3.5433611e+002  2.8375800e-023
  3.5444328e+002  3.0080700e-023
  3.5455046e+002  3.3212000e-023
  3.5465773e+002  3.8917500e-023
  3.5476490e+002  4.7303700e-023
  3.5487207e+002  5.5271500e-023
  3.5497915e+002  5.8894700e-023
  3.5508632e+002  5.7964800e-023
  3.5519349e+002  5.4260800e-023
  3.5530056e+002  4.9424600e-023
  3.5540774e+002  4.4282700e-023
  3.5551481e+002  3.9469100e-023
  3.5562198e+002  3.5284600e-023
  3.5572905e+002  3.2161200e-023
  3.5583612e+002  2.9691500e-023
  3.5594320e+002  2.7251000e-023
  3.5605027e+002  2.4862500e-023
  3.5615724e+002  2.2735400e-023
  3.5626431e+002  2.1038100e-023
  3.5637129e+002  2.0260800e-023
  3.5647836e+002  2.1290100e-023
  3.5658533e+002  2.4672100e-023
  3.5669240e+002  2.7283800e-023
  3.5679938e+002  2.7275800e-023
  3.5690635e+002  2.5698600e-023
  3.5701332e+002  2.3668700e-023
  3.5712029e+002  2.1618100e-023
  3.5722717e+002  2.0220200e-023
  3.5733414e+002  1.9794500e-023
  3.5744111e+002  1.9830500e-023
  3.5754798e+002  1.9216200e-023
  3.5765496e+002  1.8001400e-023
  3.5776183e+002  1.6725200e-023
  3.5786870e+002  1.5587500e-023
  3.5797557e+002  1.4641100e-023
  3.5808255e+002  1.3822300e-023
  3.5818942e+002  1.3254400e-023
  3.5829619e+002  1.2820000e-023
  3.5840306e+002  1.2605300e-023
  3.5850994e+002  1.2831200e-023
  3.5861681e+002  1.3532000e-023
  3.5872358e+002  1.4963000e-023
  3.5883045e+002  1.6922100e-023
  3.5893723e+002  1.9937300e-023
  3.5904400e+002  2.5072200e-023
  3.5915087e+002  3.4632900e-023
  3.5925764e+002  4.9063100e-023
  3.5936441e+002  6.1956700e-023
  3.5947119e+002  6.7152800e-023
  3.5957796e+002  6.5911200e-023
  3.5968473e+002  6.1286300e-023
  3.5979150e+002  5.5634400e-023
  3.5989818e+002  5.0051500e-023
  3.6000495e+002  4.5610500e-023
  3.6011162e+002  4.2260100e-023
  3.6021839e+002  3.8877700e-023
  3.6032507e+002  3.5060300e-023
  3.6043184e+002  3.1289100e-023
  3.6053851e+002  2.7827700e-023
  3.6064518e+002  2.4782400e-023
  3.6075186e+002  2.2298500e-023
  3.6085853e+002  2.0484700e-023
  3.6096520e+002  1.8952700e-023
  3.6107187e+002  1.7513600e-023
  3.6117855e+002  1.6028400e-023
  3.6128522e+002  1.4693800e-023
  3.6139189e+002  1.3412800e-023
  3.6149846e+002  1.2238200e-023
  3.6160514e+002  1.1301300e-023
  3.6171171e+002  1.0414200e-023
  3.6181838e+002  9.7243400e-024
  3.6192495e+002  9.1347000e-024
  3.6203153e+002  8.6192800e-024
  3.6213820e+002  8.2730300e-024
  3.6224477e+002  7.9529600e-024
  3.6235134e+002  7.6228600e-024
  3.6245792e+002  7.3402700e-024
  3.6256449e+002  7.0471000e-024
  3.6267106e+002  6.9063000e-024
  3.6277763e+002  6.7592000e-024
  3.6288421e+002  6.7588400e-024
  3.6299078e+002  6.7693200e-024
  3.6309725e+002  6.9087700e-024
  3.6320382e+002  7.2204500e-024
  3.6331040e+002  7.5246000e-024
  3.6341687e+002  7.9572400e-024
  3.6352344e+002  8.2771600e-024
  3.6362991e+002  8.2743800e-024
  3.6373649e+002  8.0628400e-024
  3.6384296e+002  7.8054400e-024
  3.6394943e+002  7.5022300e-024
  3.6405590e+002  7.2339500e-024
  3.6416248e+002  6.9981100e-024
  3.6426895e+002  6.9007800e-024
  3.6437542e+002  7.1105200e-024
  3.6448189e+002  7.8924700e-024
  3.6458837e+002  9.0747800e-024
  3.6469484e+002  9.8557600e-024
  3.6480131e+002  9.9254300e-024
  3.6490778e+002  9.5404900e-024
  3.6501426e+002  9.0708000e-024
  3.6512063e+002  8.5225200e-024
  3.6522710e+002  8.1906700e-024
  3.6533357e+002  8.1004000e-024
  3.6543995e+002  8.2069800e-024
  3.6554642e+002  8.1863300e-024
  3.6565289e+002  7.9464800e-024
  3.6575926e+002  7.5085000e-024
  3.6586574e+002  7.0847500e-024
  3.6597211e+002  6.7138900e-024
  3.6607848e+002  6.3499700e-024
  3.6618495e+002  6.0654800e-024
  3.6629133e+002  5.7939200e-024
  3.6639770e+002  5.5241900e-024
  3.6650417e+002  5.3577400e-024
  3.6661054e+002  5.2186300e-024
  3.6671692e+002  5.1011000e-024
  3.6682329e+002  4.9522800e-024
  3.6692966e+002  4.8747500e-024
  3.6703603e+002  4.8098600e-024
  3.6714241e+002  4.7833900e-024
  3.6724878e+002  4.7861600e-024
  3.6735515e+002  4.8563400e-024
  3.6746152e+002  4.8870500e-024
  3.6756790e+002  5.0240200e-024
  3.6767427e+002  5.1245500e-024
  3.6778064e+002  5.3525300e-024
  3.6788701e+002  5.7593700e-024
  3.6799339e+002  6.3270000e-024
  3.6809966e+002  7.1348700e-024
  3.6820603e+002  8.1769600e-024
  3.6831240e+002  9.2816800e-024
  3.6841868e+002  9.9858000e-024
  3.6852505e+002  1.0245600e-023
  3.6863142e+002  1.0057200e-023
  3.6873769e+002  9.6913300e-024
  3.6884407e+002  9.1542400e-024
  3.6895034e+002  8.6515100e-024
  3.6905671e+002  8.1211300e-024
  3.6916298e+002  7.7610100e-024
  3.6926935e+002  7.3198300e-024
  3.6937563e+002  6.9922000e-024
  3.6948200e+002  6.6358800e-024
  3.6958827e+002  6.3207000e-024
  3.6969464e+002  6.0333400e-024
  3.6980092e+002  5.7840900e-024
  3.6990719e+002  5.5729700e-024
  3.7001356e+002  5.3995800e-024
  3.7011983e+002  5.2597800e-024
  3.7022611e+002  5.1232900e-024
  3.7033248e+002  4.9738100e-024
  3.7043875e+002  4.8977200e-024
  3.7054502e+002  4.7414600e-024
  3.7065140e+002  4.6438300e-024
  3.7075767e+002  4.6205600e-024
  3.7086394e+002  4.5682600e-024
  3.7097021e+002  4.5248500e-024
  3.7107649e+002  4.4179900e-024
  3.7118286e+002  4.3336200e-024
  3.7128913e+002  4.3088100e-024
  3.7139540e+002  4.2302600e-024
  3.7150168e+002  4.1839000e-024
  3.7160795e+002  4.1476700e-024
  3.7171422e+002  4.0748100e-024
  3.7182049e+002  4.0724600e-024
  3.7192677e+002  4.0524100e-024
  3.7203314e+002  4.0629000e-024
  3.7213941e+002  4.1086600e-024
  3.7224568e+002  4.0744200e-024
  3.7235196e+002  4.0749300e-024
  3.7245823e+002  4.1074600e-024
  3.7256450e+002  4.1490800e-024
  3.7267077e+002  4.0970300e-024
  3.7277705e+002  4.1432100e-024
  3.7288332e+002  4.1510100e-024
  3.7298959e+002  4.3048600e-024
  3.7309586e+002  4.4357800e-024
  3.7320214e+002  4.5637400e-024
  3.7330841e+002  4.8447900e-024
  3.7341468e+002  5.0180000e-024
  3.7352095e+002  5.0431400e-024
  3.7362723e+002  5.0078700e-024
  3.7373350e+002  4.9729300e-024
  3.7383977e+002  4.9192800e-024
  3.7394604e+002  4.9589100e-024
  3.7405232e+002  4.9817600e-024
  3.7415859e+002  5.0523900e-024
  3.7426486e+002  5.1019400e-024
  3.7437113e+002  5.1054100e-024
  3.7447741e+002  5.0788600e-024
  3.7458368e+002  5.0172700e-024
  3.7468995e+002  5.0628500e-024
  3.7479622e+002  5.0808700e-024
  3.7490250e+002  5.0499800e-024
  3.7500877e+002  4.9563200e-024
  3.7511504e+002  4.9612400e-024
  3.7522131e+002  4.9175000e-024
  3.7532759e+002  4.9122800e-024
  3.7543386e+002  4.8214000e-024
  3.7554013e+002  4.8050300e-024
  3.7564640e+002  4.8276100e-024
  3.7575268e+002  4.7339500e-024
  3.7585905e+002  4.7372400e-024
  3.7596532e+002  4.7107700e-024
  3.7607159e+002  4.7245200e-024
  3.7617786e+002  4.7099000e-024
  3.7628414e+002  4.7654200e-024
  3.7639041e+002  4.7286500e-024
  3.7649668e+002  4.7002800e-024
  3.7660295e+002  4.6359300e-024
  3.7670923e+002  4.6817500e-024
  3.7681550e+002  4.6391800e-024
  3.7692187e+002  4.5933100e-024
  3.7702814e+002  4.6454500e-024
  3.7713442e+002  4.6150700e-024
  3.7724069e+002  4.5902300e-024
  3.7734696e+002  4.5107400e-024
  3.7745323e+002  4.5367000e-024
  3.7755961e+002  4.5313600e-024
  3.7766588e+002  4.5347100e-024
  3.7777215e+002  4.5574400e-024
  3.7787842e+002  4.5331100e-024
  3.7798480e+002  4.5335300e-024
  3.7809107e+002  4.5577700e-024
  3.7819734e+002  4.5480600e-024
  3.7830371e+002  4.5895100e-024
  3.7840999e+002  4.5418800e-024
  3.7851626e+002  4.5956900e-024
  3.7862263e+002  4.7235900e-024
  3.7872890e+002  4.6441300e-024
  3.7883518e+002  4.6151300e-024
  3.7894155e+002  4.6768300e-024
  3.7904782e+002  4.7543000e-024
  3.7915419e+002  4.7833000e-024
  3.7926046e+002  4.7953300e-024
  3.7936684e+002  4.8154000e-024
  3.7947311e+002  4.8580900e-024
  3.7957938e+002  4.8849700e-024
  3.7968575e+002  4.9389000e-024
  3.7979213e+002  4.9521300e-024
  3.7989840e+002  5.0328600e-024
  3.8000477e+002  5.0854900e-024
  3.8011104e+002  5.1143900e-024
  3.8021742e+002  5.1733800e-024
  3.8032379e+002  5.1600600e-024
  3.8043006e+002  5.2411200e-024
  3.8053643e+002  5.2943800e-024
  3.8064281e+002  5.3578000e-024
  3.8074908e+002  5.4645400e-024
  3.8085545e+002  5.5200000e-024
  3.8096182e+002  5.5272400e-024
  3.8106820e+002  5.5094500e-024
  3.8117447e+002  5.5705800e-024
  3.8128084e+002  5.6432900e-024
  3.8138721e+002  5.6946800e-024
  3.8149359e+002  5.7251600e-024
  3.8159996e+002  5.7628700e-024
  3.8170633e+002  5.7641900e-024
  3.8181270e+002  5.8429900e-024
  3.8191907e+002  5.8640600e-024
  3.8202545e+002  5.9100000e-024
  3.8213182e+002  5.8823600e-024
  3.8223819e+002  5.9519000e-024
  3.8234456e+002  5.8961900e-024
  3.8245094e+002  5.9516600e-024
  3.8255731e+002  5.9844200e-024
  3.8266368e+002  6.0303300e-024
  3.8277005e+002  6.0738900e-024
  3.8287643e+002  5.9707700e-024
  3.8298290e+002  6.0165500e-024
  3.8308927e+002  5.9940100e-024
  3.8319564e+002  5.9923200e-024
  3.8330202e+002  5.9693200e-024
  3.8340849e+002  5.9150600e-024
  3.8351486e+002  5.8620400e-024
  3.8362123e+002  5.8366000e-024
  3.8372770e+002  5.8127900e-024
  3.8383408e+002  5.7724500e-024
  3.8394055e+002  5.7658200e-024
  3.8404692e+002  5.7758000e-024
  3.8415329e+002  5.7186800e-024
  3.8425977e+002  5.7632900e-024
  3.8436624e+002  5.6825400e-024
  3.8447261e+002  5.6347300e-024
  3.8457908e+002  5.5821000e-024
  3.8468546e+002  5.6370500e-024
  3.8479193e+002  5.6546200e-024
  3.8489840e+002  5.6341900e-024
  3.8500477e+002  5.6847700e-024
  3.8511124e+002  5.6523300e-024
  3.8521772e+002  5.7043000e-024
  3.8532409e+002  5.7372500e-024
  3.8543056e+002  5.7473400e-024
  3.8553703e+002  5.7610600e-024
  3.8564351e+002  5.8212900e-024
  3.8574998e+002  5.8250800e-024
  3.8585645e+002  5.8967300e-024
  3.8596292e+002  5.9934000e-024
  3.8606940e+002  6.0656900e-024
  3.8617587e+002  6.1145800e-024
  3.8628234e+002  6.2232200e-024
  3.8638881e+002  6.3278500e-024
  3.8649528e+002  6.3659800e-024
  3.8660176e+002  6.5033400e-024
  3.8670823e+002  6.5794500e-024
  3.8681470e+002  6.6569500e-024
  3.8692117e+002  6.7345700e-024
  3.8702765e+002  6.7201600e-024
  3.8713422e+002  6.7613400e-024
  3.8724069e+002  6.8666300e-024
  3.8734716e+002  6.9592000e-024
  3.8745374e+002  7.0009200e-024
  3.8756021e+002  7.0180400e-024
  3.8766668e+002  7.0540600e-024
  3.8777325e+002  7.1304700e-024
  3.8787972e+002  7.1737000e-024
  3.8798630e+002  7.1925100e-024
  3.8809277e+002  7.2454700e-024
  3.8819924e+002  7.3015100e-024
  3.8830581e+002  7.3893400e-024
  3.8841239e+002  7.4232200e-024
  3.8851886e+002  7.4002900e-024
  3.8862543e+002  7.3920300e-024
  3.8873190e+002  7.4243700e-024
  3.8883848e+002  7.4508400e-024
  3.8894505e+002  7.4686800e-024
  3.8905152e+002  7.5791000e-024
  3.8915809e+002  7.5781900e-024
  3.8926466e+002  7.5984800e-024
  3.8937124e+002  7.6048400e-024
  3.8947781e+002  7.6153000e-024
  3.8958428e+002  7.6137300e-024
  3.8969085e+002  7.6534600e-024
  3.8979743e+002  7.6630500e-024
  3.8990400e+002  7.7008200e-024
  3.9001057e+002  7.7770500e-024
  3.9011714e+002  7.8083700e-024
  3.9022371e+002  7.8310300e-024
  3.9033029e+002  7.9419000e-024
  3.9043686e+002  7.9029300e-024
  3.9054343e+002  7.9781600e-024
  3.9065000e+002  7.9363900e-024
  3.9075658e+002  7.9642400e-024
  3.9086315e+002  7.9756900e-024
  3.9096972e+002  8.0461100e-024
  3.9107639e+002  8.0927400e-024
  3.9118296e+002  8.0697100e-024
  3.9128954e+002  8.1069400e-024
  3.9139611e+002  8.1383200e-024
  3.9150268e+002  8.1737300e-024
  3.9160935e+002  8.2014100e-024
  3.9171593e+002  8.2241600e-024
  3.9182250e+002  8.3401300e-024
  3.9192917e+002  8.3799100e-024
  3.9203574e+002  8.4750800e-024
  3.9214231e+002  8.5566800e-024
  3.9224899e+002  8.5920600e-024
  3.9235556e+002  8.6834600e-024
  3.9246223e+002  8.7542000e-024
  3.9256880e+002  8.9323500e-024
  3.9267548e+002  9.0446100e-024
  3.9278205e+002  9.0980800e-024
  3.9288872e+002  9.2415300e-024
  3.9299529e+002  9.3785300e-024
  3.9310196e+002  9.5092100e-024
  3.9320854e+002  9.6457900e-024
  3.9331521e+002  9.8184500e-024
  3.9342188e+002  9.9587000e-024
  3.9352845e+002  1.0094200e-023
  3.9363513e+002  1.0301300e-023
  3.9374170e+002  1.0475800e-023
  3.9384837e+002  1.0659700e-023
  3.9395504e+002  1.0839000e-023
  3.9406161e+002  1.1017200e-023
  3.9416829e+002  1.1227400e-023
  3.9427496e+002  1.1416800e-023
  3.9438163e+002  1.1567000e-023
  3.9448820e+002  1.1726000e-023
  3.9459488e+002  1.1908900e-023
  3.9470155e+002  1.2041500e-023
  3.9480822e+002  1.2204400e-023
  3.9491489e+002  1.2328200e-023
  3.9502146e+002  1.2373500e-023
  3.9512814e+002  1.2535200e-023
  3.9523481e+002  1.2532900e-023
  3.9534148e+002  1.2615900e-023
  3.9544815e+002  1.2654300e-023
  3.9555483e+002  1.2661200e-023
  3.9566140e+002  1.2634300e-023
  3.9576807e+002  1.2599300e-023
  3.9587474e+002  1.2551500e-023
  3.9598141e+002  1.2548600e-023
  3.9608809e+002  1.2434800e-023
  3.9619476e+002  1.2389100e-023
  3.9630143e+002  1.2376900e-023
  3.9640810e+002  1.2287200e-023
  3.9651478e+002  1.2150500e-023
  3.9662145e+002  1.2028800e-023
  3.9672812e+002  1.1945100e-023
  3.9683469e+002  1.1900000e-023
  3.9694136e+002  1.1835300e-023
  3.9704804e+002  1.1876900e-023
  3.9715471e+002  1.1628700e-023
  3.9726138e+002  1.1534900e-023
  3.9736805e+002  1.1599000e-023
  3.9747473e+002  1.1483400e-023
  3.9758140e+002  1.1444200e-023
  3.9768807e+002  1.1343200e-023
  3.9779474e+002  1.1285900e-023
  3.9790141e+002  1.1283400e-023
  3.9800809e+002  1.1313900e-023
  3.9811476e+002  1.1250700e-023
  3.9822143e+002  1.1146000e-023
  3.9832810e+002  1.1060900e-023
  3.9843477e+002  1.1087100e-023
  3.9854135e+002  1.1088000e-023
  3.9864802e+002  1.1027500e-023
  3.9875469e+002  1.1173400e-023
  3.9886136e+002  1.1226900e-023
  3.9896804e+002  1.1245700e-023
  3.9907471e+002  1.1280000e-023
  3.9918138e+002  1.1432300e-023
  3.9928805e+002  1.1512100e-023
  3.9939462e+002  1.1621000e-023
  3.9950130e+002  1.1696500e-023
  3.9960797e+002  1.1767400e-023
  3.9971464e+002  1.1911700e-023
  3.9982131e+002  1.1991000e-023
  3.9992789e+002  1.2278600e-023
  4.0003456e+002  1.2482000e-023
  4.0014123e+002  1.2668600e-023
  4.0024790e+002  1.2906300e-023
  4.0035447e+002  1.3063300e-023
  4.0046115e+002  1.3173500e-023
  4.0056782e+002  1.3474400e-023
  4.0067439e+002  1.3771900e-023
  4.0078106e+002  1.3912200e-023
  4.0088773e+002  1.4001900e-023
  4.0099431e+002  1.4384100e-023
  4.0110098e+002  1.4568100e-023
  4.0120755e+002  1.4801200e-023
  4.0131422e+002  1.4931800e-023
  4.0142080e+002  1.5288200e-023
  4.0152747e+002  1.5595600e-023
  4.0163404e+002  1.5703500e-023
  4.0174071e+002  1.5954300e-023
  4.0184728e+002  1.6265800e-023
  4.0198705e+002  1.6495100e-023
  4.0223398e+002  1.6706600e-023
  4.0248092e+002  1.6815000e-023
  4.0272775e+002  1.6869400e-023
  4.0297459e+002  1.6832800e-023
  4.0322143e+002  1.6737600e-023
  4.0346806e+002  1.6630400e-023
  4.0371480e+002  1.6469600e-023
  4.0396143e+002  1.6336600e-023
  4.0420807e+002  1.6197600e-023
  4.0445460e+002  1.6222400e-023
  4.0470104e+002  1.6216500e-023
  4.0494757e+002  1.6279100e-023
  4.0519391e+002  1.6507300e-023
  4.0544035e+002  1.6726900e-023
  4.0568668e+002  1.7102200e-023
  4.0593292e+002  1.7582200e-023
  4.0617915e+002  1.8100100e-023
  4.0642539e+002  1.8866800e-023
  4.0667152e+002  1.9660000e-023
  4.0691756e+002  2.0521100e-023
  4.0716370e+002  2.1565200e-023
  4.0740973e+002  2.2590300e-023
  4.0765567e+002  2.3649000e-023
  4.0790160e+002  2.4701600e-023
  4.0814744e+002  2.5683700e-023
  4.0839327e+002  2.6536500e-023
  4.0863911e+002  2.7199300e-023
  4.0888485e+002  2.7767200e-023
  4.0913058e+002  2.8214500e-023
  4.0937622e+002  2.8576000e-023
  4.0962185e+002  2.8851600e-023
  4.0986739e+002  2.9111400e-023
  4.1011292e+002  2.9266000e-023
  4.1035846e+002  2.9297400e-023
  4.1060390e+002  2.9252700e-023
  4.1084923e+002  2.9185400e-023
  4.1109457e+002  2.8910400e-023
  4.1133990e+002  2.8527200e-023
  4.1158514e+002  2.8098800e-023
  4.1183037e+002  2.7572000e-023
  4.1207561e+002  2.7177400e-023
  4.1232075e+002  2.6770800e-023
  4.1256578e+002  2.6478700e-023
  4.1281082e+002  2.6219200e-023
  4.1305585e+002  2.6056100e-023
  4.1330079e+002  2.6088100e-023
  4.1354573e+002  2.6188800e-023
  4.1379056e+002  2.6493300e-023
  4.1403540e+002  2.6959600e-023
  4.1428023e+002  2.7577300e-023
  4.1452497e+002  2.8369700e-023
  4.1476961e+002  2.9375300e-023
  4.1501434e+002  3.0433900e-023
  4.1525888e+002  3.1500400e-023
  4.1550351e+002  3.2679000e-023
  4.1574805e+002  3.3873600e-023
  4.1599248e+002  3.4990400e-023
  4.1623692e+002  3.6034300e-023
  4.1648136e+002  3.6958200e-023
  4.1672569e+002  3.7657500e-023
  4.1696993e+002  3.8287200e-023
  4.1721426e+002  3.8758600e-023
  4.1745850e+002  3.9007600e-023
  4.1770264e+002  3.9157100e-023
  4.1794677e+002  3.9127900e-023
  4.1819081e+002  3.9086300e-023
  4.1843495e+002  3.8975400e-023
  4.1867888e+002  3.8821600e-023
  4.1892292e+002  3.8610600e-023
  4.1916675e+002  3.8551200e-023
  4.1941069e+002  3.8511200e-023
  4.1965453e+002  3.8609400e-023
  4.1989826e+002  3.8856600e-023
  4.2014200e+002  3.9240000e-023
  4.2038573e+002  3.9712400e-023
  4.2062937e+002  4.0495800e-023
  4.2087301e+002  4.1560500e-023
  4.2111664e+002  4.2855400e-023
  4.2136018e+002  4.4356600e-023
  4.2160361e+002  4.6082300e-023
  4.2184705e+002  4.7924600e-023
  4.2209049e+002  4.9934000e-023
  4.2233382e+002  5.2067200e-023
  4.2257716e+002  5.4258100e-023
  4.2282050e+002  5.6359300e-023
  4.2306373e+002  5.8714100e-023
  4.2330687e+002  6.0957100e-023
  4.2355010e+002  6.3283900e-023
  4.2379314e+002  6.5525600e-023
  4.2403628e+002  6.7711000e-023
  4.2427931e+002  6.9693600e-023
  4.2452225e+002  7.1432500e-023
  4.2476519e+002  7.2812200e-023
  4.2500812e+002  7.3900400e-023
  4.2525096e+002  7.4544200e-023
  4.2549379e+002  7.4988800e-023
  4.2573663e+002  7.5110300e-023
  4.2597937e+002  7.4911400e-023
  4.2622200e+002  7.4566500e-023
  4.2646474e+002  7.3976900e-023
  4.2670728e+002  7.3166100e-023
  4.2694991e+002  7.2308500e-023
  4.2719245e+002  7.1235400e-023
  4.2743488e+002  7.0159300e-023
  4.2767732e+002  6.9089800e-023
  4.2791976e+002  6.7896400e-023
  4.2816209e+002  6.6851000e-023
  4.2840443e+002  6.6002800e-023
  4.2864677e+002  6.5285700e-023
  4.2888900e+002  6.4846200e-023
  4.2913124e+002  6.4521300e-023
  4.2937338e+002  6.4635200e-023
  4.2961551e+002  6.5041800e-023
  4.2985755e+002  6.5900000e-023
  4.3009959e+002  6.7052400e-023
  4.3034162e+002  6.8746500e-023
  4.3058356e+002  7.0564700e-023
  4.3082549e+002  7.2778700e-023
  4.3106743e+002  7.5152200e-023
  4.3130927e+002  7.7652600e-023
  4.3155100e+002  8.0129800e-023
  4.3179284e+002  8.2613600e-023
  4.3203448e+002  8.4912300e-023
  4.3227621e+002  8.6931300e-023
  4.3251785e+002  8.8583500e-023
  4.3275949e+002  8.9996300e-023
  4.3300102e+002  9.1067600e-023
  4.3324256e+002  9.1770300e-023
  4.3348400e+002  9.1985500e-023
  4.3372543e+002  9.2006600e-023
  4.3396687e+002  9.1658700e-023
  4.3420821e+002  9.1130000e-023
  4.3444954e+002  9.0608800e-023
  4.3469088e+002  8.9995400e-023
  4.3493212e+002  8.9399200e-023
  4.3517335e+002  8.8952500e-023
  4.3541449e+002  8.8552800e-023
  4.3565563e+002  8.8566900e-023
  4.3589666e+002  8.8731500e-023
  4.3613780e+002  8.9278000e-023
  4.3637873e+002  9.0141900e-023
  4.3661977e+002  9.1556500e-023
  4.3686071e+002  9.3266300e-023
  4.3710154e+002  9.5575900e-023
  4.3734248e+002  9.8285700e-023
  4.3758322e+002  1.0155600e-022
  4.3782405e+002  1.0511400e-022
  4.3806479e+002  1.0917400e-022
  4.3830553e+002  1.1354000e-022
  4.3854616e+002  1.1816700e-022
  4.3878680e+002  1.2284700e-022
  4.3902744e+002  1.2775200e-022
  4.3926798e+002  1.3251900e-022
  4.3950851e+002  1.3750700e-022
  4.3974895e+002  1.4235100e-022
  4.3998939e+002  1.4716400e-022
  4.4022982e+002  1.5174700e-022
  4.4047016e+002  1.5639000e-022
  4.4071050e+002  1.6074700e-022
  4.4095083e+002  1.6501200e-022
  4.4119107e+002  1.6895300e-022
  4.4143131e+002  1.7269400e-022
  4.4167144e+002  1.7593400e-022
  4.4191158e+002  1.7881600e-022
  4.4215172e+002  1.8091500e-022
  4.4239175e+002  1.8264900e-022
  4.4263179e+002  1.8358200e-022
  4.4287183e+002  1.8383300e-022
  4.4311176e+002  1.8338200e-022
  4.4335170e+002  1.8242900e-022
  4.4359154e+002  1.8069100e-022
  4.4383147e+002  1.7851600e-022
  4.4407121e+002  1.7580500e-022
  4.4431105e+002  1.7294200e-022
  4.4455078e+002  1.6976200e-022
  4.4479052e+002  1.6650000e-022
  4.4503016e+002  1.6319400e-022
  4.4526980e+002  1.6021100e-022
  4.4550943e+002  1.5736300e-022
  4.4574897e+002  1.5494100e-022
  4.4598851e+002  1.5286900e-022
  4.4622794e+002  1.5146200e-022
  4.4646748e+002  1.5051500e-022
  4.4670692e+002  1.5027600e-022
  4.4694625e+002  1.5067600e-022
  4.4718559e+002  1.5190600e-022
  4.4742493e+002  1.5378900e-022
  4.4766426e+002  1.5648400e-022
  4.4790350e+002  1.5973700e-022
  4.4814264e+002  1.6373500e-022
  4.4838188e+002  1.6809000e-022
  4.4862101e+002  1.7287400e-022
  4.4886015e+002  1.7783100e-022
  4.4909919e+002  1.8289700e-022
  4.4933822e+002  1.8780600e-022
  4.4957726e+002  1.9273600e-022
  4.4981620e+002  1.9738500e-022
  4.5005513e+002  2.0140800e-022
  4.5029407e+002  2.0378500e-022
  4.5053291e+002  2.0591300e-022
  4.5077175e+002  2.0716600e-022
  4.5101058e+002  2.0758700e-022
  4.5124932e+002  2.0729800e-022
  4.5148806e+002  2.0684600e-022
  4.5172679e+002  2.0599400e-022
  4.5196543e+002  2.0510700e-022
  4.5220407e+002  2.0412600e-022
  4.5244271e+002  2.0303800e-022
  4.5268134e+002  2.0186900e-022
  4.5291988e+002  2.0104800e-022
  4.5315832e+002  2.0015100e-022
  4.5339685e+002  1.9966100e-022
  4.5363529e+002  1.9975300e-022
  4.5387363e+002  2.0049300e-022
  4.5411207e+002  2.0185100e-022
  4.5435040e+002  2.0403900e-022
  4.5458874e+002  2.0700500e-022
  4.5482698e+002  2.1078100e-022
  4.5506521e+002  2.1538900e-022
  4.5530345e+002  2.2085000e-022
  4.5554159e+002  2.2689300e-022
  4.5577983e+002  2.3373700e-022
  4.5601786e+002  2.4118800e-022
  4.5625600e+002  2.4921700e-022
  4.5649404e+002  2.5761700e-022
  4.5673207e+002  2.6646800e-022
  4.5697011e+002  2.7548700e-022
  4.5720805e+002  2.8489400e-022
  4.5744599e+002  2.9422400e-022
  4.5768392e+002  3.0391400e-022
  4.5792176e+002  3.1344900e-022
  4.5815960e+002  3.2324500e-022
  4.5839743e+002  3.3290900e-022
  4.5863517e+002  3.4258800e-022
  4.5887291e+002  3.5210800e-022
  4.5911065e+002  3.6157600e-022
  4.5934838e+002  3.7081800e-022
  4.5958602e+002  3.7999600e-022
  4.5982366e+002  3.8865000e-022
  4.6006120e+002  3.9676200e-022
  4.6029883e+002  4.0428300e-022
  4.6053637e+002  4.1096600e-022
  4.6077391e+002  4.1648800e-022
  4.6101134e+002  4.2091300e-022
  4.6124878e+002  4.2399000e-022
  4.6148622e+002  4.2574500e-022
  4.6172366e+002  4.2604300e-022
  4.6196099e+002  4.2507600e-022
  4.6219833e+002  4.2269700e-022
  4.6243567e+002  4.1925500e-022
  4.6267291e+002  4.1464900e-022
  4.6291014e+002  4.0934400e-022
  4.6314738e+002  4.0325800e-022
  4.6338462e+002  3.9684300e-022
  4.6362176e+002  3.8996800e-022
  4.6385889e+002  3.8301700e-022
  4.6409603e+002  3.7615600e-022
  4.6433307e+002  3.6963300e-022
  4.6457010e+002  3.6352000e-022
  4.6480714e+002  3.5824200e-022
  4.6504418e+002  3.5354500e-022
  4.6528112e+002  3.4974100e-022
  4.6551805e+002  3.4692300e-022
  4.6575499e+002  3.4542800e-022
  4.6599183e+002  3.4499400e-022
  4.6622877e+002  3.4592200e-022
  4.6646560e+002  3.4788200e-022
  4.6670234e+002  3.5131200e-022
  4.6693918e+002  3.5583900e-022
  4.6717592e+002  3.6156100e-022
  4.6741265e+002  3.6795100e-022
  4.6764929e+002  3.7509500e-022
  4.6788603e+002  3.8245600e-022
  4.6812267e+002  3.8992800e-022
  4.6835930e+002  3.9716600e-022
  4.6859584e+002  4.0414400e-022
  4.6883248e+002  4.1057100e-022
  4.6906902e+002  4.1644900e-022
  4.6930555e+002  4.2148900e-022
  4.6954199e+002  4.2583200e-022
  4.6977853e+002  4.2918400e-022
  4.7001497e+002  4.3185800e-022
  4.7025140e+002  4.3358800e-022
  4.7048774e+002  4.3473700e-022
  4.7072408e+002  4.3522800e-022
  4.7096042e+002  4.3524600e-022
  4.7119675e+002  4.3492300e-022
  4.7143309e+002  4.3438100e-022
  4.7166933e+002  4.3363900e-022
  4.7190557e+002  4.3302700e-022
  4.7214180e+002  4.3240000e-022
  4.7237804e+002  4.3216200e-022
  4.7261418e+002  4.3220500e-022
  4.7285032e+002  4.3281000e-022
  4.7308645e+002  4.3431800e-022
  4.7332259e+002  4.3666300e-022
  4.7355863e+002  4.3945100e-022
  4.7379467e+002  4.4265500e-022
  4.7403070e+002  4.4666400e-022
  4.7426674e+002  4.5214700e-022
  4.7450278e+002  4.5872800e-022
  4.7473872e+002  4.6663100e-022
  4.7497465e+002  4.7552100e-022
  4.7521059e+002  4.8551600e-022
  4.7544643e+002  4.9637700e-022
  4.7568237e+002  5.0852500e-022
  4.7591820e+002  5.2119700e-022
  4.7615404e+002  5.3477900e-022
  4.7638978e+002  5.4881700e-022
  4.7662562e+002  5.6356000e-022
  4.7686136e+002  5.7867400e-022
  4.7709709e+002  5.9419800e-022
  4.7733283e+002  6.0991200e-022
  4.7756857e+002  6.2624900e-022
  4.7780421e+002  6.4257800e-022
  4.7803984e+002  6.5930500e-022
  4.7827548e+002  6.7611000e-022
  4.7851112e+002  6.9312200e-022
  4.7874666e+002  7.1022900e-022
  4.7898229e+002  7.2728100e-022
  4.7921783e+002  7.4432700e-022
  4.7945337e+002  7.6129200e-022
  4.7968891e+002  7.7784000e-022
  4.7992434e+002  7.9408800e-022
  4.8015978e+002  8.0951800e-022
  4.8039532e+002  8.2434000e-022
  4.8063066e+002  8.3802800e-022
  4.8086610e+002  8.5057900e-022
  4.8110153e+002  8.6145200e-022
  4.8133687e+002  8.7069400e-022
  4.8157221e+002  8.7822700e-022
  4.8180755e+002  8.8381800e-022
  4.8204288e+002  8.8755000e-022
  4.8227812e+002  8.8943700e-022
  4.8251346e+002  8.8941600e-022
  4.8274870e+002  8.8772800e-022
  4.8298393e+002  8.8437600e-022
  4.8321917e+002  8.7964400e-022
  4.8345431e+002  8.7355200e-022
  4.8368955e+002  8.6650100e-022
  4.8392469e+002  8.5844700e-022
  4.8415982e+002  8.4985600e-022
  4.8439496e+002  8.4064100e-022
  4.8463010e+002  8.3153500e-022
  4.8486514e+002  8.2207300e-022
  4.8510027e+002  8.1292400e-022
  4.8533531e+002  8.0400500e-022
  4.8557035e+002  7.9570900e-022
  4.8580539e+002  7.8814900e-022
  4.8604042e+002  7.8145500e-022
  4.8627536e+002  7.7588100e-022
  4.8651030e+002  7.7132000e-022
  4.8674534e+002  7.6802600e-022
  4.8698028e+002  7.6629600e-022
  4.8721511e+002  7.6573800e-022
  4.8745005e+002  7.6669600e-022
  4.8768499e+002  7.6912000e-022
  4.8791983e+002  7.7286400e-022
  4.8815466e+002  7.7791300e-022
  4.8838950e+002  7.8404400e-022
  4.8862434e+002  7.9099500e-022
  4.8885918e+002  7.9869100e-022
  4.8909392e+002  8.0700700e-022
  4.8932875e+002  8.1571600e-022
  4.8956349e+002  8.2545200e-022
  4.8979823e+002  8.3421800e-022
  4.9003297e+002  8.4267000e-022
  4.9026770e+002  8.5048900e-022
  4.9050244e+002  8.5842300e-022
  4.9073708e+002  8.6530400e-022
  4.9097182e+002  8.7116100e-022
  4.9120646e+002  8.7645400e-022
  4.9144109e+002  8.7968900e-022
  4.9167573e+002  8.8387900e-022
  4.9191037e+002  8.8709800e-022
  4.9214501e+002  8.8958800e-022
  4.9237954e+002  8.9126400e-022
  4.9261418e+002  8.9310600e-022
  4.9284872e+002  8.9432900e-022
  4.9308326e+002  8.9604800e-022
  4.9331780e+002  8.9681900e-022
  4.9355233e+002  8.9863700e-022
  4.9378687e+002  8.9942700e-022
  4.9402131e+002  9.0192900e-022
  4.9425585e+002  9.0436700e-022
  4.9449028e+002  9.0630800e-022
  4.9472472e+002  9.0913900e-022
  4.9495926e+002  9.1468500e-022
  4.9519370e+002  9.2018900e-022
  4.9542814e+002  9.2688400e-022
  4.9566247e+002  9.3376900e-022
  4.9589691e+002  9.4231200e-022
  4.9613135e+002  9.5101700e-022
  4.9636569e+002  9.6339700e-022
  4.9660003e+002  9.7450500e-022
  4.9683446e+002  9.8803000e-022
  4.9706880e+002  1.0012500e-021
  4.9730314e+002  1.0170300e-021
  4.9753748e+002  1.0331700e-021
  4.9777171e+002  1.0509800e-021
  4.9800605e+002  1.0689600e-021
  4.9824039e+002  1.0884300e-021
  4.9847463e+002  1.1076200e-021
  4.9870887e+002  1.1283300e-021
  4.9894320e+002  1.1490600e-021
  4.9917744e+002  1.1711900e-021
  4.9941168e+002  1.1932600e-021
  4.9964592e+002  1.2161100e-021
  4.9988015e+002  1.2392000e-021
  5.0011439e+002  1.2636800e-021
  5.0034853e+002  1.2870500e-021
  5.0058277e+002  1.3120300e-021
  5.0081691e+002  1.3362200e-021
  5.0105114e+002  1.3610200e-021
  5.0128528e+002  1.3846800e-021
  5.0151942e+002  1.4101700e-021
  5.0175366e+002  1.4347900e-021
  5.0198780e+002  1.4592200e-021
  5.0222193e+002  1.4818100e-021
  5.0245607e+002  1.5043700e-021
  5.0269021e+002  1.5268400e-021
  5.0292425e+002  1.5480200e-021
  5.0315838e+002  1.5671100e-021
  5.0339252e+002  1.5858700e-021
  5.0362656e+002  1.6021700e-021
  5.0386070e+002  1.6191800e-021
  5.0409474e+002  1.6329200e-021
  5.0432877e+002  1.6459800e-021
  5.0456291e+002  1.6566100e-021
  5.0479695e+002  1.6654700e-021
  5.0503099e+002  1.6727200e-021
  5.0526503e+002  1.6786600e-021
  5.0549906e+002  1.6827000e-021
  5.0573310e+002  1.6842800e-021
  5.0596714e+002  1.6838300e-021
  5.0620118e+002  1.6832600e-021
  5.0643521e+002  1.6807900e-021
  5.0666915e+002  1.6765900e-021
  5.0690319e+002  1.6707000e-021
  5.0713723e+002  1.6645400e-021
  5.0737117e+002  1.6568200e-021
  5.0760520e+002  1.6500100e-021
  5.0783914e+002  1.6411900e-021
  5.0807308e+002  1.6325300e-021
  5.0830712e+002  1.6243600e-021
  5.0854106e+002  1.6165200e-021
  5.0877499e+002  1.6070400e-021
  5.0900903e+002  1.5994000e-021
  5.0924297e+002  1.5923200e-021
  5.0947691e+002  1.5856500e-021
  5.0971084e+002  1.5806600e-021
  5.0994478e+002  1.5763100e-021
  5.1017872e+002  1.5721000e-021
  5.1041266e+002  1.5700100e-021
  5.1064660e+002  1.5682300e-021
  5.1088053e+002  1.5681300e-021
  5.1111447e+002  1.5688700e-021
  5.1134841e+002  1.5716800e-021
  5.1158235e+002  1.5744300e-021
  5.1181618e+002  1.5796200e-021
  5.1205012e+002  1.5852900e-021
  5.1228406e+002  1.5925300e-021
  5.1251800e+002  1.5995600e-021
  5.1275184e+002  1.6077500e-021
  5.1298577e+002  1.6164500e-021
  5.1321971e+002  1.6250800e-021
  5.1345365e+002  1.6350500e-021
  5.1368749e+002  1.6444000e-021
  5.1392143e+002  1.6540800e-021
  5.1415526e+002  1.6645600e-021
  5.1438920e+002  1.6746500e-021
  5.1462314e+002  1.6830100e-021
  5.1485698e+002  1.6920000e-021
  5.1509091e+002  1.7016400e-021
  5.1532475e+002  1.7107800e-021
  5.1555869e+002  1.7194300e-021
  5.1579253e+002  1.7278300e-021
  5.1602647e+002  1.7354700e-021
  5.1626040e+002  1.7426500e-021
  5.1649424e+002  1.7509700e-021
  5.1672818e+002  1.7578300e-021
  5.1696202e+002  1.7641700e-021
  5.1719595e+002  1.7710800e-021
  5.1742979e+002  1.7789200e-021
  5.1766373e+002  1.7852000e-021
  5.1789757e+002  1.7924800e-021
  5.1813151e+002  1.7993700e-021
  5.1836544e+002  1.8063100e-021
  5.1859928e+002  1.8140700e-021
  5.1883322e+002  1.8219000e-021
  5.1906716e+002  1.8299000e-021
  5.1930099e+002  1.8383100e-021
  5.1953493e+002  1.8470500e-021
  5.1976887e+002  1.8564600e-021
  5.2000271e+002  1.8657100e-021
  5.2023665e+002  1.8761200e-021
  5.2047058e+002  1.8877400e-021
  5.2070442e+002  1.8998400e-021
  5.2093836e+002  1.9110300e-021
  5.2117230e+002  1.9252500e-021
  5.2140623e+002  1.9388000e-021
  5.2164017e+002  1.9539900e-021
  5.2187411e+002  1.9681200e-021
  5.2210805e+002  1.9858600e-021
  5.2234199e+002  2.0023300e-021
  5.2257592e+002  2.0201200e-021
  5.2280986e+002  2.0388000e-021
  5.2304380e+002  2.0572200e-021
  5.2327774e+002  2.0761200e-021
  5.2351167e+002  2.0976300e-021
  5.2374561e+002  2.1183000e-021
  5.2397955e+002  2.1392800e-021
  5.2421359e+002  2.1612100e-021
  5.2444753e+002  2.1835400e-021
  5.2468146e+002  2.2049900e-021
  5.2491550e+002  2.2288100e-021
  5.2514944e+002  2.2514900e-021
  5.2538348e+002  2.2759300e-021
  5.2561741e+002  2.2985700e-021
  5.2585145e+002  2.3237800e-021
  5.2608549e+002  2.3475700e-021
  5.2631943e+002  2.3714400e-021
  5.2655347e+002  2.3951800e-021
  5.2678750e+002  2.4197500e-021
  5.2702154e+002  2.4436400e-021
  5.2725558e+002  2.4673900e-021
  5.2748962e+002  2.4910000e-021
  5.2772365e+002  2.5153200e-021
  5.2795769e+002  2.5380900e-021
  5.2819173e+002  2.5617500e-021
  5.2842577e+002  2.5852000e-021
  5.2865990e+002  2.6069000e-021
  5.2889394e+002  2.6282300e-021
  5.2912808e+002  2.6502300e-021
  5.2936212e+002  2.6699500e-021
  5.2959626e+002  2.6907600e-021
  5.2983029e+002  2.7104400e-021
  5.3006443e+002  2.7299300e-021
  5.3029857e+002  2.7467700e-021
  5.3053271e+002  2.7645300e-021
  5.3076684e+002  2.7803800e-021
  5.3100098e+002  2.7958000e-021
  5.3123512e+002  2.8103900e-021
  5.3146926e+002  2.8235200e-021
  5.3170349e+002  2.8357800e-021
  5.3193763e+002  2.8464600e-021
  5.3217187e+002  2.8559800e-021
  5.3240601e+002  2.8662800e-021
  5.3264024e+002  2.8733900e-021
  5.3287448e+002  2.8798400e-021
  5.3310872e+002  2.8853100e-021
  5.3334296e+002  2.8907800e-021
  5.3357720e+002  2.8939600e-021
  5.3381143e+002  2.8961000e-021
  5.3404567e+002  2.8972300e-021
  5.3427991e+002  2.8983200e-021
  5.3451425e+002  2.8983200e-021
  5.3474848e+002  2.8965200e-021
  5.3498282e+002  2.8936300e-021
  5.3521716e+002  2.8920600e-021
  5.3545150e+002  2.8905500e-021
  5.3568583e+002  2.8897300e-021
  5.3592017e+002  2.8874300e-021
  5.3615451e+002  2.8866200e-021
  5.3638885e+002  2.8855500e-021
  5.3662328e+002  2.8849800e-021
  5.3685762e+002  2.8841700e-021
  5.3709206e+002  2.8850300e-021
  5.3732640e+002  2.8864300e-021
  5.3756083e+002  2.8890500e-021
  5.3779527e+002  2.8922000e-021
  5.3802971e+002  2.8963800e-021
  5.3826425e+002  2.9002200e-021
  5.3849868e+002  2.9073500e-021
  5.3873312e+002  2.9144200e-021
  5.3896766e+002  2.9236200e-021
  5.3920220e+002  2.9316000e-021
  5.3943663e+002  2.9416800e-021
  5.3967117e+002  2.9530800e-021
  5.3990571e+002  2.9652100e-021
  5.4014035e+002  2.9764700e-021
  5.4037488e+002  2.9910500e-021
  5.4060952e+002  3.0036600e-021
  5.4084406e+002  3.0180100e-021
  5.4107870e+002  3.0319100e-021
  5.4131333e+002  3.0476100e-021
  5.4154797e+002  3.0611200e-021
  5.4178261e+002  3.0760400e-021
  5.4201725e+002  3.0911100e-021
  5.4225198e+002  3.1062100e-021
  5.4248662e+002  3.1207700e-021
  5.4272136e+002  3.1355700e-021
  5.4295610e+002  3.1493800e-021
  5.4319083e+002  3.1640900e-021
  5.4342557e+002  3.1777700e-021
  5.4366031e+002  3.1912500e-021
  5.4389515e+002  3.2040300e-021
  5.4412988e+002  3.2163300e-021
  5.4436472e+002  3.2291700e-021
  5.4459956e+002  3.2408000e-021
  5.4483440e+002  3.2508400e-021
  5.4506923e+002  3.2617500e-021
  5.4530417e+002  3.2708000e-021
  5.4553901e+002  3.2804100e-021
  5.4577394e+002  3.2895100e-021
  5.4600888e+002  3.2970500e-021
  5.4624382e+002  3.3054300e-021
  5.4647876e+002  3.3156800e-021
  5.4671369e+002  3.3223100e-021
  5.4694873e+002  3.3310500e-021
  5.4718377e+002  3.3385300e-021
  5.4741871e+002  3.3462700e-021
  5.4765374e+002  3.3530300e-021
  5.4788888e+002  3.3597500e-021
  5.4812392e+002  3.3671000e-021
  5.4835896e+002  3.3730700e-021
  5.4859409e+002  3.3800100e-021
  5.4882923e+002  3.3884800e-021
  5.4906437e+002  3.3927000e-021
  5.4929950e+002  3.4001100e-021
  5.4953474e+002  3.4073200e-021
  5.4976988e+002  3.4142200e-021
  5.5000512e+002  3.4210300e-021
  5.5024035e+002  3.4285100e-021
  5.5047559e+002  3.4359500e-021
  5.5071083e+002  3.4437000e-021
  5.5094617e+002  3.4509300e-021
  5.5118150e+002  3.4588900e-021
  5.5141674e+002  3.4666400e-021
  5.5165208e+002  3.4753200e-021
  5.5188751e+002  3.4828500e-021
  5.5212285e+002  3.4915100e-021
  5.5235829e+002  3.4998300e-021
  5.5259373e+002  3.5104700e-021
  5.5282916e+002  3.5182700e-021
  5.5306460e+002  3.5292500e-021
  5.5330004e+002  3.5390100e-021
  5.5353557e+002  3.5490200e-021
  5.5377111e+002  3.5596900e-021
  5.5400665e+002  3.5699100e-021
  5.5424219e+002  3.5813300e-021
  5.5447772e+002  3.5942900e-021
  5.5471336e+002  3.6066200e-021
  5.5494900e+002  3.6188000e-021
  5.5518463e+002  3.6321500e-021
  5.5542027e+002  3.6466500e-021
  5.5565591e+002  3.6603700e-021
  5.5589165e+002  3.6778200e-021
  5.5612738e+002  3.6919900e-021
  5.5636312e+002  3.7093500e-021
  5.5659886e+002  3.7273800e-021
  5.5683469e+002  3.7445600e-021
  5.5707043e+002  3.7637300e-021
  5.5730627e+002  3.7835300e-021
  5.5754211e+002  3.8024600e-021
  5.5777804e+002  3.8240500e-021
  5.5801388e+002  3.8460800e-021
  5.5824982e+002  3.8691100e-021
  5.5848575e+002  3.8909400e-021
  5.5872169e+002  3.9134800e-021
  5.5895773e+002  3.9368400e-021
  5.5919366e+002  3.9607200e-021
  5.5942970e+002  3.9847400e-021
  5.5966574e+002  4.0102400e-021
  5.5990188e+002  4.0345400e-021
  5.6013791e+002  4.0582300e-021
  5.6037405e+002  4.0824400e-021
  5.6061019e+002  4.1070300e-021
  5.6084632e+002  4.1305100e-021
  5.6108256e+002  4.1545400e-021
  5.6131880e+002  4.1784700e-021
  5.6155503e+002  4.2024100e-021
  5.6179127e+002  4.2245000e-021
  5.6202751e+002  4.2477100e-021
  5.6226384e+002  4.2681500e-021
  5.6250018e+002  4.2910000e-021
  5.6273652e+002  4.3110700e-021
  5.6297286e+002  4.3298800e-021
  5.6320929e+002  4.3492000e-021
  5.6344573e+002  4.3688300e-021
  5.6368217e+002  4.3868500e-021
  5.6391870e+002  4.4047900e-021
  5.6415514e+002  4.4216400e-021
  5.6439168e+002  4.4384300e-021
  5.6462821e+002  4.4540400e-021
  5.6486475e+002  4.4699900e-021
  5.6510139e+002  4.4853300e-021
  5.6533802e+002  4.5008000e-021
  5.6557466e+002  4.5153600e-021
  5.6581130e+002  4.5293700e-021
  5.6604803e+002  4.5435100e-021
  5.6628477e+002  4.5570100e-021
  5.6652151e+002  4.5706400e-021
  5.6675824e+002  4.5852900e-021
  5.6699508e+002  4.5974700e-021
  5.6723192e+002  4.6117200e-021
  5.6746875e+002  4.6255000e-021
  5.6770569e+002  4.6394900e-021
  5.6794253e+002  4.6526300e-021
  5.6817946e+002  4.6671900e-021
  5.6841650e+002  4.6802700e-021
  5.6865344e+002  4.6950700e-021
  5.6889047e+002  4.7092700e-021
  5.6912751e+002  4.7225900e-021
  5.6936455e+002  4.7365200e-021
  5.6960168e+002  4.7518900e-021
  5.6983872e+002  4.7656100e-021
  5.7007596e+002  4.7795900e-021
  5.7031309e+002  4.7934600e-021
  5.7055033e+002  4.8065700e-021
  5.7078747e+002  4.8191700e-021
  5.7102480e+002  4.8326400e-021
  5.7126204e+002  4.8444300e-021
  5.7149938e+002  4.8557600e-021
  5.7173671e+002  4.8672200e-021
  5.7197405e+002  4.8772300e-021
  5.7221149e+002  4.8858800e-021
  5.7244892e+002  4.8946200e-021
  5.7268636e+002  4.9024600e-021
  5.7292380e+002  4.9088800e-021
  5.7316133e+002  4.9134300e-021
  5.7339887e+002  4.9179800e-021
  5.7363641e+002  4.9211800e-021
  5.7387404e+002  4.9239200e-021
  5.7411168e+002  4.9238900e-021
  5.7434932e+002  4.9244600e-021
  5.7458695e+002  4.9218400e-021
  5.7482469e+002  4.9197900e-021
  5.7506242e+002  4.9155400e-021
  5.7530016e+002  4.9114700e-021
  5.7553800e+002  4.9063400e-021
  5.7577583e+002  4.8993500e-021
  5.7601367e+002  4.8922100e-021
  5.7625151e+002  4.8843400e-021
  5.7648944e+002  4.8764100e-021
  5.7672738e+002  4.8677600e-021
  5.7696532e+002  4.8587500e-021
  5.7720335e+002  4.8491600e-021
  5.7744139e+002  4.8386700e-021
  5.7767943e+002  4.8280000e-021
  5.7791756e+002  4.8172700e-021
  5.7815570e+002  4.8066600e-021
  5.7839383e+002  4.7953300e-021
  5.7863197e+002  4.7845100e-021
  5.7887021e+002  4.7710600e-021
  5.7910844e+002  4.7599100e-021
  5.7934668e+002  4.7487200e-021
  5.7958502e+002  4.7373000e-021
  5.7982335e+002  4.7256700e-021
  5.8006169e+002  4.7134600e-021
  5.8030012e+002  4.7019400e-021
  5.8053856e+002  4.6913900e-021
  5.8077700e+002  4.6797000e-021
  5.8101553e+002  4.6694500e-021
  5.8125397e+002  4.6573300e-021
  5.8149261e+002  4.6479600e-021
  5.8173114e+002  4.6378600e-021
  5.8196978e+002  4.6281800e-021
  5.8220841e+002  4.6170000e-021
  5.8244705e+002  4.6087100e-021
  5.8268579e+002  4.6003600e-021
  5.8292452e+002  4.5924000e-021
  5.8316326e+002  4.5838400e-021
  5.8340209e+002  4.5759400e-021
  5.8364093e+002  4.5703700e-021
  5.8387977e+002  4.5631000e-021
  5.8411870e+002  4.5566200e-021
  5.8435764e+002  4.5520400e-021
  5.8459658e+002  4.5452600e-021
  5.8483561e+002  4.5397100e-021
  5.8507465e+002  4.5351300e-021
  5.8531368e+002  4.5316900e-021
  5.8555282e+002  4.5281400e-021
  5.8579196e+002  4.5253000e-021
  5.8603109e+002  4.5226200e-021
  5.8627023e+002  4.5209900e-021
  5.8650946e+002  4.5181900e-021
  5.8674880e+002  4.5175300e-021
  5.8698804e+002  4.5170400e-021
  5.8722737e+002  4.5162900e-021
  5.8746671e+002  4.5168900e-021
  5.8770614e+002  4.5175600e-021
  5.8794558e+002  4.5187600e-021
  5.8818502e+002  4.5211100e-021
  5.8842445e+002  4.5231900e-021
  5.8866399e+002  4.5248200e-021
  5.8890362e+002  4.5268700e-021
  5.8914316e+002  4.5297000e-021
  5.8938279e+002  4.5343800e-021
  5.8962243e+002  4.5401900e-021
  5.8986217e+002  4.5458900e-021
  5.9010190e+002  4.5548100e-021
  5.9034164e+002  4.5626200e-021
  5.9058147e+002  4.5720800e-021
  5.9082131e+002  4.5817300e-021
  5.9106115e+002  4.5929100e-021
  5.9130098e+002  4.6048500e-021
  5.9154092e+002  4.6171800e-021
  5.9178095e+002  4.6294200e-021
  5.9202089e+002  4.6450600e-021
  5.9226092e+002  4.6598000e-021
  5.9250106e+002  4.6757200e-021
  5.9274110e+002  4.6934700e-021
  5.9298123e+002  4.7120100e-021
  5.9322147e+002  4.7303100e-021
  5.9346160e+002  4.7502000e-021
  5.9370194e+002  4.7695200e-021
  5.9394217e+002  4.7905600e-021
  5.9418251e+002  4.8113000e-021
  5.9442285e+002  4.8327900e-021
  5.9466318e+002  4.8550400e-021
  5.9490362e+002  4.8767100e-021
  5.9514405e+002  4.8983300e-021
  5.9538459e+002  4.9212400e-021
  5.9562512e+002  4.9417600e-021
  5.9586566e+002  4.9641900e-021
  5.9610630e+002  4.9865000e-021
  5.9634683e+002  5.0077800e-021
  5.9658757e+002  5.0288500e-021
  5.9682820e+002  5.0504600e-021
  5.9706894e+002  5.0717100e-021
  5.9730977e+002  5.0904600e-021
  5.9755061e+002  5.1091800e-021
  5.9776705e+002  5.1426100e-021
  5.9799129e+002  5.1609700e-021
  5.9821543e+002  5.1787500e-021
  5.9843957e+002  5.1965300e-021
  5.9866361e+002  5.2147700e-021
  5.9888765e+002  5.2312300e-021
  5.9911159e+002  5.2482900e-021
  5.9933553e+002  5.2645700e-021
  5.9955937e+002  5.2796100e-021
  5.9978311e+002  5.2922700e-021
  6.0000695e+002  5.3039100e-021
  6.0023059e+002  5.3128300e-021
  6.0045423e+002  5.3225000e-021
  6.0067787e+002  5.3294400e-021
  6.0090141e+002  5.3365500e-021
  6.0112485e+002  5.3428200e-021
  6.0134829e+002  5.3479100e-021
  6.0157173e+002  5.3492100e-021
  6.0179507e+002  5.3514400e-021
  6.0201831e+002  5.3516500e-021
  6.0224155e+002  5.3525300e-021
  6.0246479e+002  5.3506300e-021
  6.0268793e+002  5.3494800e-021
  6.0291097e+002  5.3453800e-021
  6.0313401e+002  5.3414300e-021
  6.0335695e+002  5.3363400e-021
  6.0357989e+002  5.3307300e-021
  6.0380283e+002  5.3222600e-021
  6.0402567e+002  5.3148800e-021
  6.0424841e+002  5.3051700e-021
  6.0447116e+002  5.2961900e-021
  6.0469380e+002  5.2848800e-021
  6.0491644e+002  5.2744600e-021
  6.0513908e+002  5.2612500e-021
  6.0536152e+002  5.2486500e-021
  6.0558406e+002  5.2343600e-021
  6.0580650e+002  5.2215500e-021
  6.0602884e+002  5.2060300e-021
  6.0625118e+002  5.1908400e-021
  6.0647342e+002  5.1738700e-021
  6.0669566e+002  5.1576200e-021
  6.0691790e+002  5.1409200e-021
  6.0713994e+002  5.1226200e-021
  6.0736208e+002  5.1042100e-021
  6.0758412e+002  5.0860000e-021
  6.0780606e+002  5.0660700e-021
  6.0802800e+002  5.0467200e-021
  6.0824984e+002  5.0271000e-021
  6.0847168e+002  5.0076600e-021
  6.0869352e+002  4.9878200e-021
  6.0891526e+002  4.9678700e-021
  6.0913691e+002  4.9479400e-021
  6.0935855e+002  4.9287700e-021
  6.0958019e+002  4.9078500e-021
  6.0980173e+002  4.8877800e-021
  6.1002317e+002  4.8668000e-021
  6.1024461e+002  4.8478700e-021
  6.1046605e+002  4.8275200e-021
  6.1068739e+002  4.8066900e-021
  6.1090863e+002  4.7866800e-021
  6.1112987e+002  4.7672600e-021
  6.1135111e+002  4.7474600e-021
  6.1157225e+002  4.7276800e-021
  6.1179339e+002  4.7071900e-021
  6.1201443e+002  4.6879900e-021
  6.1223547e+002  4.6695400e-021
  6.1245642e+002  4.6498500e-021
  6.1267736e+002  4.6310500e-021
  6.1289820e+002  4.6130200e-021
  6.1311904e+002  4.5945100e-021
  6.1333978e+002  4.5762400e-021
  6.1356052e+002  4.5569800e-021
  6.1378116e+002  4.5405200e-021
  6.1400180e+002  4.5239200e-021
  6.1422244e+002  4.5077000e-021
  6.1444288e+002  4.4886500e-021
  6.1466342e+002  4.4728200e-021
  6.1488386e+002  4.4551300e-021
  6.1510431e+002  4.4389100e-021
  6.1532465e+002  4.4216700e-021
  6.1554489e+002  4.4061800e-021
  6.1576513e+002  4.3918600e-021
  6.1598537e+002  4.3774200e-021
  6.1620551e+002  4.3609000e-021
  6.1642565e+002  4.3457700e-021
  6.1664569e+002  4.3302400e-021
  6.1686573e+002  4.3159900e-021
  6.1708577e+002  4.3020600e-021
  6.1730572e+002  4.2883800e-021
  6.1752556e+002  4.2730000e-021
  6.1774540e+002  4.2594100e-021
  6.1796514e+002  4.2470500e-021
  6.1818498e+002  4.2336700e-021
  6.1840462e+002  4.2213100e-021
  6.1862426e+002  4.2088300e-021
  6.1884390e+002  4.1960500e-021
  6.1906344e+002  4.1845900e-021
  6.1928299e+002  4.1706400e-021
  6.1950253e+002  4.1600900e-021
  6.1972187e+002  4.1492600e-021
  6.1994131e+002  4.1380500e-021
  6.2016065e+002  4.1258700e-021
  6.2037989e+002  4.1159000e-021
  6.2059923e+002  4.1044700e-021
  6.2081837e+002  4.0927500e-021
  6.2103752e+002  4.0832200e-021
  6.2125666e+002  4.0724900e-021
  6.2147570e+002  4.0620300e-021
  6.2169474e+002  4.0517200e-021
  6.2191378e+002  4.0418600e-021
  6.2213272e+002  4.0316700e-021
  6.2235156e+002  4.0207000e-021
  6.2257040e+002  4.0113000e-021
  6.2278925e+002  4.0009000e-021
  6.2300799e+002  3.9914900e-021
  6.2322673e+002  3.9809100e-021
  6.2344537e+002  3.9714200e-021
  6.2366401e+002  3.9601100e-021
  6.2388265e+002  3.9501700e-021
  6.2410119e+002  3.9396200e-021
  6.2431963e+002  3.9296700e-021
  6.2453818e+002  3.9178200e-021
  6.2475652e+002  3.9090200e-021
  6.2497496e+002  3.8984700e-021
  6.2519330e+002  3.8872600e-021
  6.2541154e+002  3.8763200e-021
  6.2562978e+002  3.8657100e-021
  6.2584802e+002  3.8536500e-021
  6.2606617e+002  3.8436700e-021
  6.2628421e+002  3.8324300e-021
  6.2650235e+002  3.8205200e-021
  6.2672039e+002  3.8079800e-021
  6.2693833e+002  3.7972800e-021
  6.2715627e+002  3.7868200e-021
  6.2737422e+002  3.7749400e-021
  6.2759206e+002  3.7618600e-021
  6.2780990e+002  3.7501100e-021
  6.2802764e+002  3.7391600e-021
  6.2824538e+002  3.7262300e-021
  6.2846302e+002  3.7137200e-021
  6.2868067e+002  3.7025100e-021
  6.2889831e+002  3.6901800e-021
  6.2911585e+002  3.6767700e-021
  6.2933339e+002  3.6658800e-021
  6.2955083e+002  3.6530700e-021
  6.2976827e+002  3.6421900e-021
  6.2998571e+002  3.6304100e-021
  6.3020306e+002  3.6175300e-021
  6.3042040e+002  3.6053600e-021
  6.3063764e+002  3.5935700e-021
  6.3085488e+002  3.5826000e-021
  6.3107202e+002  3.5706600e-021
  6.3128927e+002  3.5600500e-021
  6.3150631e+002  3.5470000e-021
  6.3172335e+002  3.5351200e-021
  6.3194039e+002  3.5227300e-021
  6.3215743e+002  3.5124300e-021
  6.3237437e+002  3.5006100e-021
  6.3259122e+002  3.4891800e-021
  6.3280816e+002  3.4764900e-021
  6.3302500e+002  3.4636800e-021
  6.3324174e+002  3.4511700e-021
  6.3345848e+002  3.4386000e-021
  6.3367522e+002  3.4265200e-021
  6.3389187e+002  3.4139200e-021
  6.3410851e+002  3.4017700e-021
  6.3432505e+002  3.3880200e-021
  6.3454159e+002  3.3746400e-021
  6.3475813e+002  3.3608000e-021
  6.3497458e+002  3.3473900e-021
  6.3519102e+002  3.3350300e-021
  6.3540736e+002  3.3209800e-021
  6.3562370e+002  3.3076000e-021
  6.3584004e+002  3.2936100e-021
  6.3605629e+002  3.2796000e-021
  6.3627253e+002  3.2654600e-021
  6.3648877e+002  3.2521100e-021
  6.3670491e+002  3.2382400e-021
  6.3692095e+002  3.2245300e-021
  6.3713710e+002  3.2111100e-021
  6.3735314e+002  3.1983600e-021
  6.3756908e+002  3.1837400e-021
  6.3778502e+002  3.1707800e-021
  6.3800096e+002  3.1576100e-021
  6.3821691e+002  3.1438900e-021
  6.3843275e+002  3.1304200e-021
  6.3864849e+002  3.1159800e-021
  6.3886423e+002  3.1024800e-021
  6.3907997e+002  3.0889400e-021
  6.3929572e+002  3.0742000e-021
  6.3951136e+002  3.0606400e-021
  6.3972690e+002  3.0470100e-021
  6.3994254e+002  3.0327500e-021
  6.4015808e+002  3.0187700e-021
  6.4037353e+002  3.0055400e-021
  6.4058907e+002  2.9918200e-021
  6.4080441e+002  2.9797000e-021
  6.4101985e+002  2.9659900e-021
  6.4123520e+002  2.9530900e-021
  6.4145054e+002  2.9407200e-021
  6.4166578e+002  2.9286400e-021
  6.4188102e+002  2.9164100e-021
  6.4209626e+002  2.9043000e-021
  6.4231141e+002  2.8925400e-021
  6.4252655e+002  2.8815500e-021
  6.4274159e+002  2.8692000e-021
  6.4295663e+002  2.8580600e-021
  6.4317168e+002  2.8475000e-021
  6.4338662e+002  2.8366700e-021
  6.4360156e+002  2.8265900e-021
  6.4381650e+002  2.8169800e-021
  6.4403134e+002  2.8068200e-021
  6.4424619e+002  2.7966300e-021
  6.4446103e+002  2.7874500e-021
  6.4467577e+002  2.7760000e-021
  6.4489051e+002  2.7661200e-021
  6.4510516e+002  2.7577100e-021
  6.4531990e+002  2.7472500e-021
  6.4553444e+002  2.7359600e-021
  6.4574908e+002  2.7261000e-021
  6.4596363e+002  2.7154300e-021
  6.4617817e+002  2.7051800e-021
  6.4639261e+002  2.6958900e-021
  6.4660705e+002  2.6845800e-021
  6.4682150e+002  2.6741900e-021
  6.4703584e+002  2.6648500e-021
  6.4725018e+002  2.6547700e-021
  6.4746442e+002  2.6456000e-021
  6.4767877e+002  2.6354400e-021
  6.4789301e+002  2.6253000e-021
  6.4810715e+002  2.6165300e-021
  6.4832129e+002  2.6071400e-021
  6.4853544e+002  2.5987900e-021
  6.4874958e+002  2.5896800e-021
  6.4896362e+002  2.5803200e-021
  6.4917766e+002  2.5716300e-021
  6.4939161e+002  2.5638700e-021
  6.4960555e+002  2.5545500e-021
  6.4981949e+002  2.5453700e-021
  6.5003343e+002  2.5373300e-021
  6.5024728e+002  2.5291100e-021
  6.5046102e+002  2.5210700e-021
  6.5067486e+002  2.5134000e-021
  6.5088860e+002  2.5046700e-021
  6.5110235e+002  2.4964900e-021
  6.5131599e+002  2.4874400e-021
  6.5152963e+002  2.4800500e-021
  6.5174327e+002  2.4710500e-021
  6.5195682e+002  2.4621900e-021
  6.5217046e+002  2.4542700e-021
  6.5238390e+002  2.4449500e-021
  6.5259744e+002  2.4358600e-021
  6.5281089e+002  2.4253200e-021
  6.5302433e+002  2.4163700e-021
  6.5323767e+002  2.4085600e-021
  6.5345102e+002  2.3997200e-021
  6.5366436e+002  2.3897800e-021
  6.5387760e+002  2.3806400e-021
  6.5409094e+002  2.3714300e-021
  6.5430409e+002  2.3640100e-021
  6.5451733e+002  2.3544600e-021
  6.5473047e+002  2.3451200e-021
  6.5494361e+002  2.3355900e-021
  6.5515666e+002  2.3250400e-021
  6.5536980e+002  2.3163800e-021
  6.5558284e+002  2.3078000e-021
  6.5579579e+002  2.2993700e-021
  6.5600873e+002  2.2904600e-021
  6.5622167e+002  2.2816400e-021
  6.5643461e+002  2.2739900e-021
  6.5664746e+002  2.2648900e-021
  6.5686030e+002  2.2563900e-021
  6.5707314e+002  2.2469100e-021
  6.5728588e+002  2.2379500e-021
  6.5749863e+002  2.2296600e-021
  6.5771137e+002  2.2204000e-021
  6.5792411e+002  2.2128100e-021
  6.5813676e+002  2.2037500e-021
  6.5834930e+002  2.1956800e-021
  6.5856194e+002  2.1870600e-021
  6.5877448e+002  2.1786700e-021
  6.5898703e+002  2.1709900e-021
  6.5919957e+002  2.1627800e-021
  6.5941201e+002  2.1555300e-021
  6.5962446e+002  2.1462300e-021
  6.5983690e+002  2.1384500e-021
  6.6004924e+002  2.1299500e-021
  6.6026159e+002  2.1218700e-021
  6.6047393e+002  2.1149100e-021
  6.6068617e+002  2.1062600e-021
  6.6089841e+002  2.0980000e-021
  6.6111066e+002  2.0920100e-021
  6.6132290e+002  2.0837400e-021
  6.6153504e+002  2.0756900e-021
  6.6174719e+002  2.0672500e-021
  6.6195933e+002  2.0617400e-021
  6.6217137e+002  2.0535000e-021
  6.6238341e+002  2.0455800e-021
  6.6259546e+002  2.0384600e-021
  6.6280750e+002  2.0298400e-021
  6.6301944e+002  2.0212500e-021
  6.6323139e+002  2.0140600e-021
  6.6344333e+002  2.0056300e-021
  6.6365517e+002  1.9966100e-021
  6.6386702e+002  1.9877900e-021
  6.6407886e+002  1.9791600e-021
  6.6429060e+002  1.9683100e-021
  6.6450235e+002  1.9604300e-021
  6.6471409e+002  1.9514100e-021
  6.6492583e+002  1.9424500e-021
  6.6513747e+002  1.9325800e-021
  6.6534912e+002  1.9236100e-021
  6.6556076e+002  1.9143400e-021
  6.6577240e+002  1.9045600e-021
  6.6598395e+002  1.8965400e-021
  6.6619549e+002  1.8861200e-021
  6.6640703e+002  1.8775800e-021
  6.6661848e+002  1.8680300e-021
  6.6682992e+002  1.8586400e-021
  6.6704136e+002  1.8494500e-021
  6.6725281e+002  1.8399600e-021
  6.6746415e+002  1.8305900e-021
  6.6767549e+002  1.8219000e-021
  6.6788684e+002  1.8124400e-021
  6.6809808e+002  1.8030500e-021
  6.6830942e+002  1.7943400e-021
  6.6852067e+002  1.7855200e-021
  6.6873181e+002  1.7759000e-021
  6.6894305e+002  1.7662800e-021
  6.6915419e+002  1.7577800e-021
  6.6936534e+002  1.7482500e-021
  6.6957638e+002  1.7393400e-021
  6.6978752e+002  1.7306700e-021
  6.6999857e+002  1.7219100e-021
  6.7020961e+002  1.7120800e-021
  6.7042055e+002  1.7045100e-021
  6.7063160e+002  1.6959500e-021
  6.7084254e+002  1.6873200e-021
  6.7105338e+002  1.6785100e-021
  6.7126433e+002  1.6696900e-021
  6.7147517e+002  1.6616100e-021
  6.7168601e+002  1.6525400e-021
  6.7189686e+002  1.6448500e-021
  6.7210770e+002  1.6367200e-021
  6.7231844e+002  1.6272700e-021
  6.7252919e+002  1.6204500e-021
  6.7273993e+002  1.6131600e-021
  6.7295057e+002  1.6051100e-021
  6.7316122e+002  1.5974100e-021
  6.7337186e+002  1.5887500e-021
  6.7358250e+002  1.5808900e-021
  6.7379315e+002  1.5734700e-021
  6.7400369e+002  1.5652200e-021
  6.7421423e+002  1.5577300e-021
  6.7442478e+002  1.5495600e-021
  6.7463522e+002  1.5429500e-021
  6.7484566e+002  1.5359900e-021
  6.7505611e+002  1.5287300e-021
  6.7526655e+002  1.5219300e-021
  6.7547699e+002  1.5151100e-021
  6.7568734e+002  1.5075900e-021
  6.7589768e+002  1.5002200e-021
  6.7610802e+002  1.4922900e-021
  6.7631827e+002  1.4865000e-021
  6.7652861e+002  1.4786000e-021
  6.7673886e+002  1.4715400e-021
  6.7694910e+002  1.4647400e-021
  6.7715924e+002  1.4578200e-021
  6.7736949e+002  1.4503100e-021
  6.7757963e+002  1.4444400e-021
  6.7778977e+002  1.4371600e-021
  6.7799992e+002  1.4300600e-021
  6.7820996e+002  1.4229100e-021
  6.7842000e+002  1.4174600e-021
  6.7863005e+002  1.4108900e-021
  6.7884009e+002  1.4052600e-021
  6.7905013e+002  1.3974600e-021
  6.7926008e+002  1.3928500e-021
  6.7947002e+002  1.3871000e-021
  6.7967996e+002  1.3796500e-021
  6.7988991e+002  1.3759800e-021
  6.8009975e+002  1.3703800e-021
  6.8030959e+002  1.3643000e-021
  6.8051944e+002  1.3590200e-021
  6.8072928e+002  1.3528800e-021
  6.8093913e+002  1.3479000e-021
  6.8114887e+002  1.3445900e-021
  6.8135861e+002  1.3419100e-021
  6.8156836e+002  1.3372800e-021
  6.8177810e+002  1.3328800e-021
  6.8198774e+002  1.3281000e-021
  6.8219749e+002  1.3247200e-021
  6.8240713e+002  1.3207400e-021
  6.8261667e+002  1.3163500e-021
  6.8282632e+002  1.3128000e-021
  6.8303586e+002  1.3096000e-021
  6.8324550e+002  1.3046300e-021
  6.8345505e+002  1.3010800e-021
  6.8366449e+002  1.2974800e-021
  6.8387404e+002  1.2942000e-021
  6.8408348e+002  1.2895400e-021
  6.8429302e+002  1.2855900e-021
  6.8450237e+002  1.2802500e-021
  6.8471181e+002  1.2763900e-021
  6.8492125e+002  1.2703600e-021
  6.8513060e+002  1.2664300e-021
  6.8533994e+002  1.2605700e-021
  6.8554928e+002  1.2555400e-021
  6.8575863e+002  1.2500600e-021
  6.8596787e+002  1.2446200e-021
  6.8617722e+002  1.2386900e-021
  6.8638646e+002  1.2335700e-021
  6.8659570e+002  1.2268600e-021
  6.8680495e+002  1.2203300e-021
  6.8701409e+002  1.2137300e-021
  6.8722323e+002  1.2080400e-021
  6.8743248e+002  1.2007300e-021
  6.8764162e+002  1.1938000e-021
  6.8785067e+002  1.1878500e-021
  6.8805981e+002  1.1814500e-021
  6.8826885e+002  1.1743500e-021
  6.8847800e+002  1.1663100e-021
  6.8868704e+002  1.1606900e-021
  6.8889598e+002  1.1541900e-021
  6.8910503e+002  1.1464500e-021
  6.8931407e+002  1.1406400e-021
  6.8952302e+002  1.1323600e-021
  6.8973196e+002  1.1257900e-021
  6.8994090e+002  1.1204600e-021
  6.9014985e+002  1.1131100e-021
  6.9035869e+002  1.1067500e-021
  6.9056753e+002  1.1001200e-021
  6.9077648e+002  1.0930300e-021
  6.9098532e+002  1.0871800e-021
  6.9119407e+002  1.0808700e-021
  6.9140291e+002  1.0751500e-021
  6.9161175e+002  1.0688900e-021
  6.9182050e+002  1.0629800e-021
  6.9202924e+002  1.0567400e-021
  6.9223798e+002  1.0509000e-021
  6.9244673e+002  1.0451100e-021
  6.9265537e+002  1.0378600e-021
  6.9286412e+002  1.0328600e-021
  6.9307276e+002  1.0282000e-021
  6.9328140e+002  1.0220000e-021
  6.9349005e+002  1.0168800e-021
  6.9369869e+002  1.0100300e-021
  6.9390724e+002  1.0037000e-021
  6.9411588e+002  9.9739900e-022
  6.9432442e+002  9.9199100e-022
  6.9453297e+002  9.8532000e-022
  6.9474151e+002  9.8022300e-022
  6.9495005e+002  9.7498100e-022
  6.9515850e+002  9.6943800e-022
  6.9536704e+002  9.6195000e-022
  6.9557549e+002  9.5583700e-022
  6.9578393e+002  9.5053200e-022
  6.9599237e+002  9.4486800e-022
  6.9620082e+002  9.3883300e-022
  6.9640926e+002  9.3390800e-022
  6.9661761e+002  9.2802400e-022
  6.9682595e+002  9.2387000e-022
  6.9703439e+002  9.1731100e-022
  6.9724274e+002  9.1162000e-022
  6.9745108e+002  9.0556700e-022
  6.9765933e+002  8.9939700e-022
  6.9786767e+002  8.9517900e-022
  6.9807591e+002  8.8930500e-022
  6.9828426e+002  8.8463200e-022
  6.9849250e+002  8.8047900e-022
  6.9870075e+002  8.7573100e-022
  6.9890889e+002  8.7240600e-022
  6.9911713e+002  8.6673300e-022
  6.9932538e+002  8.6142500e-022
  6.9953352e+002  8.5693400e-022
  6.9974167e+002  8.5344300e-022
  6.9994981e+002  8.4933100e-022
  7.0015795e+002  8.4526200e-022
  7.0036610e+002  8.4041800e-022
  7.0057424e+002  8.3564600e-022
  7.0078228e+002  8.3277400e-022
  7.0099043e+002  8.2880400e-022
  7.0119847e+002  8.2458400e-022
  7.0140652e+002  8.2229900e-022
  7.0161456e+002  8.1738800e-022
  7.0182260e+002  8.1404600e-022
  7.0203065e+002  8.1008800e-022
  7.0223869e+002  8.0662400e-022
  7.0244664e+002  8.0380600e-022
  7.0265458e+002  8.0089400e-022
  7.0286262e+002  7.9805200e-022
  7.0307057e+002  7.9616800e-022
  7.0327851e+002  7.9363900e-022
  7.0348636e+002  7.9026600e-022
  7.0369430e+002  7.8596400e-022
  7.0390224e+002  7.8458600e-022
  7.0411009e+002  7.8201200e-022
  7.0431793e+002  7.7848200e-022
  7.0452588e+002  7.7601100e-022
  7.0473372e+002  7.7246900e-022
  7.0494156e+002  7.7040700e-022
  7.0514941e+002  7.6878500e-022
  7.0535715e+002  7.6664200e-022
  7.0556500e+002  7.6471000e-022
  7.0577274e+002  7.6239800e-022
  7.0598059e+002  7.5970300e-022
  7.0618833e+002  7.5734900e-022
  7.0639607e+002  7.5485900e-022
  7.0660382e+002  7.5229400e-022
  7.0681156e+002  7.5006900e-022
  7.0701931e+002  7.4694000e-022
  7.0722705e+002  7.4589100e-022
  7.0743469e+002  7.4397700e-022
  7.0764244e+002  7.4327500e-022
  7.0785008e+002  7.4000400e-022
  7.0805773e+002  7.3805700e-022
  7.0826537e+002  7.3516000e-022
  7.0847301e+002  7.3390300e-022
  7.0868066e+002  7.3234500e-022
  7.0888830e+002  7.3053900e-022
  7.0909595e+002  7.2743800e-022
  7.0930349e+002  7.2576200e-022
  7.0951113e+002  7.2439000e-022
  7.0971868e+002  7.2288600e-022
  7.0992632e+002  7.2078800e-022
  7.1013387e+002  7.1874700e-022
  7.1034141e+002  7.1735800e-022
  7.1054895e+002  7.1600400e-022
  7.1075650e+002  7.1383400e-022
  7.1096404e+002  7.1261300e-022
  7.1117149e+002  7.1220600e-022
  7.1137903e+002  7.1101300e-022
  7.1158658e+002  7.0892700e-022
  7.1179402e+002  7.0766100e-022
  7.1200146e+002  7.0757600e-022
  7.1220901e+002  7.0669900e-022
  7.1241645e+002  7.0498100e-022
  7.1262390e+002  7.0476100e-022
  7.1283134e+002  7.0372400e-022
  7.1303878e+002  7.0502600e-022
  7.1324623e+002  7.0520700e-022
  7.1345357e+002  7.0435400e-022
  7.1366102e+002  7.0396500e-022
  7.1386846e+002  7.0436600e-022
  7.1407580e+002  7.0436600e-022
  7.1428315e+002  7.0471300e-022
  7.1449059e+002  7.0474600e-022
  7.1469794e+002  7.0398000e-022
  7.1490528e+002  7.0268700e-022
  7.1511263e+002  7.0356100e-022
  7.1531997e+002  7.0187300e-022
  7.1552731e+002  6.9925400e-022
  7.1573466e+002  6.9848500e-022
  7.1594200e+002  6.9666700e-022
  7.1614935e+002  6.9435800e-022
  7.1635659e+002  6.9342700e-022
  7.1656393e+002  6.9119300e-022
  7.1677118e+002  6.8744000e-022
  7.1697852e+002  6.8411600e-022
  7.1718577e+002  6.8113700e-022
  7.1739301e+002  6.7883200e-022
  7.1760026e+002  6.7528400e-022
  7.1780760e+002  6.7033400e-022
  7.1801484e+002  6.6641200e-022
  7.1822209e+002  6.6140900e-022
  7.1842933e+002  6.5771000e-022
  7.1863658e+002  6.5296900e-022
  7.1884372e+002  6.4891100e-022
  7.1905096e+002  6.4386500e-022
  7.1925821e+002  6.3875300e-022
  7.1946535e+002  6.3358000e-022
  7.1967260e+002  6.2847700e-022
  7.1987984e+002  6.2351500e-022
  7.2008699e+002  6.1826100e-022
  7.2029413e+002  6.1337200e-022
  7.2050137e+002  6.0834400e-022
  7.2070852e+002  6.0330700e-022
  7.2091566e+002  5.9860200e-022
  7.2112291e+002  5.9415300e-022
  7.2133005e+002  5.8973400e-022
  7.2153719e+002  5.8558300e-022
  7.2174434e+002  5.8135700e-022
  7.2195148e+002  5.7742900e-022
  7.2215863e+002  5.7362200e-022
  7.2236577e+002  5.7027000e-022
  7.2257282e+002  5.6680100e-022
  7.2277996e+002  5.6369300e-022
  7.2298710e+002  5.6048300e-022
  7.2319425e+002  5.5753200e-022
  7.2340129e+002  5.5434500e-022
  7.2360844e+002  5.5169600e-022
  7.2381558e+002  5.4919700e-022
  7.2402262e+002  5.4651700e-022
  7.2422977e+002  5.4398200e-022
  7.2443681e+002  5.4173300e-022
  7.2464396e+002  5.3928000e-022
  7.2485100e+002  5.3687400e-022
  7.2505805e+002  5.3435700e-022
  7.2526519e+002  5.3206000e-022
  7.2547223e+002  5.2940500e-022
  7.2567928e+002  5.2687000e-022
  7.2588632e+002  5.2412100e-022
  7.2609347e+002  5.2145000e-022
  7.2630051e+002  5.1870700e-022
  7.2650755e+002  5.1603900e-022
  7.2671460e+002  5.1291900e-022
  7.2692164e+002  5.0994100e-022
  7.2712869e+002  5.0657100e-022
  7.2733573e+002  5.0360800e-022
  7.2754278e+002  5.0044000e-022
  7.2774982e+002  4.9737500e-022
  7.2795686e+002  4.9417600e-022
  7.2816391e+002  4.9101100e-022
  7.2837095e+002  4.8801800e-022
  7.2857800e+002  4.8513300e-022
  7.2878504e+002  4.8217600e-022
  7.2899199e+002  4.7933400e-022
  7.2919903e+002  4.7650600e-022
  7.2940607e+002  4.7398300e-022
  7.2961312e+002  4.7116800e-022
  7.2982016e+002  4.6869000e-022
  7.3002711e+002  4.6633600e-022
  7.3023415e+002  4.6401500e-022
  7.3044119e+002  4.6166100e-022
  7.3064824e+002  4.5942400e-022
  7.3085518e+002  4.5725700e-022
  7.3106223e+002  4.5552900e-022
  7.3126927e+002  4.5377800e-022
  7.3147622e+002  4.5213500e-022
  7.3168326e+002  4.5056200e-022
  7.3189030e+002  4.4912400e-022
  7.3209725e+002  4.4758100e-022
  7.3230429e+002  4.4625100e-022
  7.3251134e+002  4.4501500e-022
  7.3271828e+002  4.4386400e-022
  7.3292532e+002  4.4288100e-022
  7.3313237e+002  4.4194400e-022
  7.3333931e+002  4.4094300e-022
  7.3354636e+002  4.4022900e-022
  7.3375340e+002  4.3942700e-022
  7.3396035e+002  4.3880300e-022
  7.3416739e+002  4.3813100e-022
  7.3437443e+002  4.3740400e-022
  7.3458138e+002  4.3669900e-022
  7.3478842e+002  4.3614100e-022
  7.3499547e+002  4.3578900e-022
  7.3520241e+002  4.3552600e-022
  7.3540946e+002  4.3500800e-022
  7.3561650e+002  4.3462500e-022
  7.3582354e+002  4.3404000e-022
  7.3603049e+002  4.3354000e-022
  7.3623753e+002  4.3308200e-022
  7.3644458e+002  4.3267500e-022
  7.3665162e+002  4.3219600e-022
  7.3685856e+002  4.3179200e-022
  7.3706561e+002  4.3128200e-022
  7.3727265e+002  4.3071200e-022
  7.3747970e+002  4.3024500e-022
  7.3768674e+002  4.2983500e-022
  7.3789379e+002  4.2930800e-022
  7.3810073e+002  4.2928700e-022
  7.3830777e+002  4.2885900e-022
  7.3851482e+002  4.2848500e-022
  7.3872186e+002  4.2831000e-022
  7.3892891e+002  4.2841000e-022
  7.3913595e+002  4.2842500e-022
  7.3934299e+002  4.2839100e-022
  7.3955004e+002  4.2828300e-022
  7.3975718e+002  4.2856300e-022
  7.3996423e+002  4.2879800e-022
  7.4017127e+002  4.2922900e-022
  7.4037832e+002  4.2953400e-022
  7.4058536e+002  4.2999800e-022
  7.4079240e+002  4.3067300e-022
  7.4099955e+002  4.3139400e-022
  7.4120659e+002  4.3205100e-022
  7.4141364e+002  4.3302700e-022
  7.4162078e+002  4.3384400e-022
  7.4182782e+002  4.3499600e-022
  7.4203497e+002  4.3600000e-022
  7.4224201e+002  4.3728100e-022
  7.4244916e+002  4.3833000e-022
  7.4265620e+002  4.3976500e-022
  7.4286335e+002  4.4125100e-022
  7.4307049e+002  4.4279700e-022
  7.4327753e+002  4.4431600e-022
  7.4348468e+002  4.4598000e-022
  7.4369182e+002  4.4772800e-022
  7.4389897e+002  4.4954600e-022
  7.4410611e+002  4.5130300e-022
  7.4431325e+002  4.5312400e-022
  7.4452040e+002  4.5483600e-022
  7.4472754e+002  4.5667200e-022
  7.4493469e+002  4.5823900e-022
  7.4514183e+002  4.5999700e-022
  7.4534897e+002  4.6143500e-022
  7.4555612e+002  4.6299900e-022
  7.4576336e+002  4.6442500e-022
  7.4597051e+002  4.6576300e-022
  7.4617765e+002  4.6665200e-022
  7.4638490e+002  4.6735200e-022
  7.4659204e+002  4.6764700e-022
  7.4679928e+002  4.6802400e-022
  7.4700653e+002  4.6804800e-022
  7.4721367e+002  4.6799100e-022
  7.4742092e+002  4.6763800e-022
  7.4762816e+002  4.6715900e-022
  7.4783540e+002  4.6589000e-022
  7.4804265e+002  4.6481700e-022
  7.4824989e+002  4.6329100e-022
  7.4845714e+002  4.6171800e-022
  7.4866438e+002  4.5956000e-022
  7.4887162e+002  4.5712700e-022
  7.4907897e+002  4.5394400e-022
  7.4928621e+002  4.5089300e-022
  7.4949346e+002  4.4743600e-022
  7.4970080e+002  4.4371000e-022
  7.4990804e+002  4.3969200e-022
  7.5011539e+002  4.3552000e-022
  7.5032273e+002  4.3093000e-022
  7.5053008e+002  4.2628400e-022
  7.5073742e+002  4.2107300e-022
  7.5094467e+002  4.1630700e-022
  7.5115211e+002  4.1112800e-022
  7.5135945e+002  4.0602800e-022
  7.5156680e+002  4.0073200e-022
  7.5177414e+002  3.9558000e-022
  7.5198149e+002  3.9019700e-022
  7.5218893e+002  3.8530800e-022
  7.5239627e+002  3.8005100e-022
  7.5260372e+002  3.7516400e-022
  7.5281116e+002  3.7020900e-022
  7.5301861e+002  3.6561200e-022
  7.5322595e+002  3.6111100e-022
  7.5343339e+002  3.5678900e-022
  7.5364084e+002  3.5229800e-022
  7.5384838e+002  3.4836700e-022
  7.5405583e+002  3.4442400e-022
  7.5426327e+002  3.4057800e-022
  7.5447081e+002  3.3684300e-022
  7.5467826e+002  3.3313500e-022
  7.5488580e+002  3.2959400e-022
  7.5509325e+002  3.2642200e-022
  7.5530079e+002  3.2310100e-022
  7.5550833e+002  3.2038800e-022
  7.5571588e+002  3.1714700e-022
  7.5592342e+002  3.1452800e-022
  7.5613097e+002  3.1181500e-022
  7.5633861e+002  3.0928900e-022
  7.5654615e+002  3.0673000e-022
  7.5675370e+002  3.0450800e-022
  7.5696134e+002  3.0199700e-022
  7.5716899e+002  2.9989800e-022
  7.5737663e+002  2.9769700e-022
  7.5758427e+002  2.9586200e-022
  7.5779192e+002  2.9383300e-022
  7.5799956e+002  2.9218300e-022
  7.5820721e+002  2.9035400e-022
  7.5841485e+002  2.8887100e-022
  7.5862259e+002  2.8718800e-022
  7.5883024e+002  2.8566000e-022
  7.5903798e+002  2.8412400e-022
  7.5924573e+002  2.8286000e-022
  7.5945347e+002  2.8089100e-022
  7.5966121e+002  2.7932100e-022
  7.5986896e+002  2.7740500e-022
  7.6007670e+002  2.7555500e-022
  7.6028455e+002  2.7376300e-022
  7.6049229e+002  2.7279900e-022
  7.6070013e+002  2.7175900e-022
  7.6090798e+002  2.7077100e-022
  7.6111572e+002  2.6994000e-022
  7.6132356e+002  2.6965400e-022
  7.6153151e+002  2.6924700e-022
  7.6173935e+002  2.6884900e-022
  7.6194720e+002  2.6777000e-022
  7.6215514e+002  2.6667500e-022
  7.6236298e+002  2.6509500e-022
  7.6257093e+002  2.6409200e-022
  7.6277887e+002  2.6279600e-022
  7.6298682e+002  2.6178400e-022
  7.6319476e+002  2.6067500e-022
  7.6340270e+002  2.5943100e-022
  7.6361075e+002  2.5860300e-022
  7.6381869e+002  2.5830500e-022
  7.6402674e+002  2.5807100e-022
  7.6423478e+002  2.5857800e-022
  7.6444282e+002  2.5895000e-022
  7.6465087e+002  2.5926300e-022
  7.6485891e+002  2.5881900e-022
  7.6506705e+002  2.5768900e-022
  7.6527510e+002  2.5658200e-022
  7.6548324e+002  2.5561500e-022
  7.6569139e+002  2.5489700e-022
  7.6589953e+002  2.5413700e-022
  7.6610767e+002  2.5332500e-022
  7.6631582e+002  2.5280900e-022
  7.6652396e+002  2.5262300e-022
  7.6673221e+002  2.5281400e-022
  7.6694045e+002  2.5312400e-022
  7.6714859e+002  2.5331400e-022
  7.6735684e+002  2.5344400e-022
  7.6756518e+002  2.5383500e-022
  7.6777342e+002  2.5400800e-022
  7.6798167e+002  2.5449600e-022
  7.6819001e+002  2.5453000e-022
  7.6839836e+002  2.5499000e-022
  7.6860670e+002  2.5526300e-022
  7.6881504e+002  2.5549800e-022
  7.6902339e+002  2.5589700e-022
  7.6923173e+002  2.5662300e-022
  7.6944017e+002  2.5710500e-022
  7.6964862e+002  2.5775800e-022
  7.6985696e+002  2.5810600e-022
  7.7006541e+002  2.5899800e-022
  7.7027395e+002  2.5975400e-022
  7.7048239e+002  2.6076100e-022
  7.7069094e+002  2.6174600e-022
  7.7089938e+002  2.6292800e-022
  7.7110792e+002  2.6394100e-022
  7.7131647e+002  2.6534500e-022
  7.7152501e+002  2.6656400e-022
  7.7173366e+002  2.6804400e-022
  7.7194220e+002  2.6945100e-022
  7.7215084e+002  2.7135600e-022
  7.7235949e+002  2.7315800e-022
  7.7256813e+002  2.7549000e-022
  7.7277677e+002  2.7730000e-022
  7.7298552e+002  2.7972100e-022
  7.7319416e+002  2.8192300e-022
  7.7340290e+002  2.8438800e-022
  7.7361165e+002  2.8667800e-022
  7.7382039e+002  2.8939300e-022
  7.7402914e+002  2.9190200e-022
  7.7423798e+002  2.9502400e-022
  7.7444672e+002  2.9770700e-022
  7.7465557e+002  3.0080900e-022
  7.7486441e+002  3.0358900e-022
  7.7507335e+002  3.0684700e-022
  7.7528220e+002  3.0955100e-022
  7.7549114e+002  3.1288500e-022
  7.7569998e+002  3.1566100e-022
  7.7590893e+002  3.1897700e-022
  7.7611797e+002  3.2181100e-022
  7.7632692e+002  3.2477700e-022
  7.7653586e+002  3.2720300e-022
  7.7674490e+002  3.2999400e-022
  7.7695395e+002  3.3227300e-022
  7.7716299e+002  3.3485100e-022
  7.7737213e+002  3.3676800e-022
  7.7758118e+002  3.3904700e-022
  7.7779032e+002  3.4050200e-022
  7.7799946e+002  3.4228100e-022
  7.7820861e+002  3.4319700e-022
  7.7841775e+002  3.4461100e-022
  7.7862699e+002  3.4481600e-022
  7.7883614e+002  3.4534600e-022
  7.7904538e+002  3.4528000e-022
  7.7925472e+002  3.4530400e-022
  7.7946397e+002  3.4446600e-022
  7.7967321e+002  3.4399600e-022
  7.7988256e+002  3.4262800e-022
  7.8009190e+002  3.4175600e-022
  7.8030124e+002  3.4008000e-022
  7.8051069e+002  3.3861200e-022
  7.8072003e+002  3.3608300e-022
  7.8092947e+002  3.3381400e-022
  7.8113892e+002  3.3082300e-022
  7.8134836e+002  3.2852000e-022
  7.8153971e+002  3.2614500e-022
  7.8183923e+002  3.2112000e-022
  7.8213865e+002  3.1587200e-022
  7.8243797e+002  3.0999700e-022
  7.8273718e+002  3.0488200e-022
  7.8303640e+002  2.9944600e-022
  7.8333552e+002  2.9378200e-022
  7.8363454e+002  2.8806500e-022
  7.8393346e+002  2.8278700e-022
  7.8423238e+002  2.7734300e-022
  7.8453120e+002  2.7187000e-022
  7.8482992e+002  2.6687700e-022
  7.8512854e+002  2.6179500e-022
  7.8542716e+002  2.5710600e-022
  7.8572558e+002  2.5281800e-022
  7.8602400e+002  2.4851800e-022
  7.8632242e+002  2.4432800e-022
  7.8662064e+002  2.4036700e-022
  7.8691886e+002  2.3700800e-022
  7.8721697e+002  2.3329500e-022
  7.8751509e+002  2.3023700e-022
  7.8781301e+002  2.2715900e-022
  7.8811093e+002  2.2411100e-022
  7.8840875e+002  2.2115000e-022
  7.8870657e+002  2.1837600e-022
  7.8900419e+002  2.1560200e-022
  7.8930181e+002  2.1288400e-022
  7.8959933e+002  2.1044300e-022
  7.8989685e+002  2.0800400e-022
  7.9019427e+002  2.0571200e-022
  7.9049149e+002  2.0328200e-022
  7.9078881e+002  2.0071200e-022
  7.9108593e+002  1.9840700e-022
  7.9138305e+002  1.9602700e-022
  7.9168007e+002  1.9352200e-022
  7.9197699e+002  1.9113200e-022
  7.9227391e+002  1.8863800e-022
  7.9257073e+002  1.8642500e-022
  7.9286745e+002  1.8405600e-022
  7.9316407e+002  1.8165200e-022
  7.9346069e+002  1.7957800e-022
  7.9375721e+002  1.7756100e-022
  7.9405363e+002  1.7538700e-022
  7.9435005e+002  1.7341100e-022
  7.9464637e+002  1.7142300e-022
  7.9494259e+002  1.6966700e-022
  7.9523871e+002  1.6833000e-022
  7.9553483e+002  1.6687800e-022
  7.9583085e+002  1.6549300e-022
  7.9612677e+002  1.6400400e-022
  7.9642269e+002  1.6281500e-022
  7.9671851e+002  1.6177300e-022
  7.9701423e+002  1.6097200e-022
  7.9730995e+002  1.6023700e-022
  7.9760547e+002  1.5951500e-022
  7.9790099e+002  1.5864800e-022
  7.9819651e+002  1.5793500e-022
  7.9849183e+002  1.5715500e-022
  7.9878715e+002  1.5645300e-022
  7.9908247e+002  1.5567300e-022
  7.9937759e+002  1.5499700e-022
  7.9967271e+002  1.5433300e-022
  7.9996773e+002  1.5371400e-022
  8.0026275e+002  1.5315100e-022
  8.0055767e+002  1.5246400e-022
  8.0085249e+002  1.5206000e-022
  8.0114721e+002  1.5164000e-022
  8.0144193e+002  1.5119200e-022
  8.0173655e+002  1.5101900e-022
  8.0203107e+002  1.5079100e-022
  8.0232559e+002  1.5047000e-022
  8.0262001e+002  1.5033900e-022
  8.0291433e+002  1.5028800e-022
  8.0320865e+002  1.5022800e-022
  8.0350288e+002  1.5038800e-022
  8.0379700e+002  1.5046400e-022
  8.0409112e+002  1.5083800e-022
  8.0438514e+002  1.5137300e-022
  8.0467906e+002  1.5200100e-022
  8.0497298e+002  1.5293300e-022
  8.0526680e+002  1.5394700e-022
  8.0556052e+002  1.5496500e-022
  8.0585424e+002  1.5633300e-022
  8.0614776e+002  1.5787300e-022
  8.0644138e+002  1.6005100e-022
  8.0673480e+002  1.6204700e-022
  8.0702822e+002  1.6420700e-022
  8.0732164e+002  1.6675700e-022
  8.0761486e+002  1.6934400e-022
  8.0790808e+002  1.7211500e-022
  8.0820121e+002  1.7492800e-022
  8.0849433e+002  1.7788700e-022
  8.0878735e+002  1.8060900e-022
  8.0908027e+002  1.8341900e-022
  8.0937319e+002  1.8651700e-022
  8.0966601e+002  1.8949400e-022
  8.0995873e+002  1.9250700e-022
  8.1025145e+002  1.9560000e-022
  8.1054407e+002  1.9855800e-022
  8.1083669e+002  2.0140000e-022
  8.1112911e+002  2.0458700e-022
  8.1142164e+002  2.0769400e-022
  8.1171396e+002  2.1071800e-022
  8.1200628e+002  2.1353300e-022
  8.1229850e+002  2.1653900e-022
  8.1259072e+002  2.1958700e-022
  8.1288284e+002  2.2256800e-022
  8.1317486e+002  2.2522600e-022
  8.1346688e+002  2.2799700e-022
  8.1375880e+002  2.3068200e-022
  8.1405062e+002  2.3297600e-022
  8.1434245e+002  2.3534200e-022
  8.1463417e+002  2.3740900e-022
  8.1492579e+002  2.3930100e-022
  8.1521741e+002  2.4099000e-022
  8.1550903e+002  2.4202000e-022
  8.1580045e+002  2.4303400e-022
  8.1609187e+002  2.4372400e-022
  8.1638329e+002  2.4419800e-022
  8.1667452e+002  2.4409900e-022
  8.1696584e+002  2.4356500e-022
  8.1725696e+002  2.4288300e-022
  8.1754808e+002  2.4174600e-022
  8.1783910e+002  2.3989400e-022
  8.1813012e+002  2.3798200e-022
  8.1842104e+002  2.3570300e-022
  8.1871186e+002  2.3334600e-022
  8.1900269e+002  2.3046800e-022
  8.1929341e+002  2.2728400e-022
  8.1958413e+002  2.2393100e-022
  8.1987475e+002  2.2048900e-022
  8.2016527e+002  2.1672800e-022
  8.2045579e+002  2.1269700e-022
  8.2074621e+002  2.0838900e-022
  8.2103664e+002  2.0405200e-022
  8.2132696e+002  1.9921400e-022
  8.2161718e+002  1.9440000e-022
  8.2190740e+002  1.8960600e-022
  8.2219752e+002  1.8464600e-022
  8.2248764e+002  1.7992900e-022
  8.2277767e+002  1.7488700e-022
  8.2306759e+002  1.6858300e-022
  8.2335751e+002  1.6264400e-022
  8.2364733e+002  1.5761700e-022
  8.2393715e+002  1.5310300e-022
  8.2422687e+002  1.4904300e-022
  8.2451650e+002  1.4540900e-022
  8.2480612e+002  1.4217100e-022
  8.2509574e+002  1.3913400e-022
  8.2538516e+002  1.3567500e-022
  8.2567458e+002  1.3203100e-022
  8.2596400e+002  1.2842800e-022
  8.2625333e+002  1.2487600e-022
  8.2654255e+002  1.2135200e-022
  8.2683177e+002  1.1811700e-022
  8.2712089e+002  1.1499700e-022
  8.2741001e+002  1.1234300e-022
  8.2769903e+002  1.0973000e-022
  8.2798796e+002  1.0697400e-022
  8.2827688e+002  1.0405200e-022
  8.2856580e+002  1.0225300e-022
  8.2885452e+002  1.0092900e-022
  8.2914334e+002  9.8991700e-023
  8.2943197e+002  9.6975100e-023
  8.2972059e+002  9.5115300e-023
  8.3000921e+002  9.3246100e-023
  8.3029773e+002  9.1498700e-023
  8.3058615e+002  8.9936600e-023
  8.3087458e+002  8.8475600e-023
  8.3116290e+002  8.6917800e-023
  8.3145122e+002  8.5587900e-023
  8.3173944e+002  8.4278400e-023
  8.3202766e+002  8.3184500e-023
  8.3231579e+002  8.2172600e-023
  8.3260381e+002  8.1220100e-023
  8.3289183e+002  8.0332700e-023
  8.3317985e+002  7.9640600e-023
  8.3346778e+002  7.8789300e-023
  8.3375560e+002  7.8048100e-023
  8.3404342e+002  7.7387100e-023
  8.3433114e+002  7.6923400e-023
  8.3461876e+002  7.6404700e-023
  8.3490649e+002  7.6232000e-023
  8.3519401e+002  7.5728900e-023
  8.3548153e+002  7.5422000e-023
  8.3576905e+002  7.5129300e-023
  8.3605648e+002  7.4824000e-023
  8.3634380e+002  7.4502300e-023
  8.3663112e+002  7.4324200e-023
  8.3691834e+002  7.4114700e-023
  8.3720556e+002  7.4118300e-023
  8.3749269e+002  7.4064400e-023
  8.3777981e+002  7.4077300e-023
  8.3806693e+002  7.4062500e-023
  8.3835385e+002  7.4171400e-023
  8.3864078e+002  7.4318200e-023
  8.3892770e+002  7.4081500e-023
  8.3921452e+002  7.4220800e-023
  8.3950134e+002  7.4617800e-023
  8.3978807e+002  7.4997000e-023
  8.4007469e+002  7.5228200e-023
  8.4036141e+002  7.5571200e-023
  8.4064793e+002  7.5957400e-023
  8.4093446e+002  7.6431500e-023
  8.4122098e+002  7.6798700e-023
  8.4150740e+002  7.7407600e-023
  8.4179372e+002  7.8177400e-023
  8.4208005e+002  7.8893300e-023
  8.4236637e+002  7.9739100e-023
  8.4265249e+002  8.0675100e-023
  8.4293871e+002  8.1457900e-023
  8.4322484e+002  8.2073700e-023
  8.4351086e+002  8.3072400e-023
  8.4379688e+002  8.4215700e-023
  8.4408290e+002  8.5049200e-023
  8.4436883e+002  8.6064400e-023
  8.4465465e+002  8.7223100e-023
  8.4494047e+002  8.8604600e-023
  8.4522619e+002  8.9775700e-023
  8.4551192e+002  9.0972100e-023
  8.4579764e+002  9.2241100e-023
  8.4608326e+002  9.3888400e-023
  8.4636879e+002  9.5585800e-023
  8.4665431e+002  9.7525200e-023
  8.4693983e+002  9.9545100e-023
  8.4722525e+002  1.0164600e-022
  8.4751058e+002  1.0398900e-022
  8.4779590e+002  1.0640700e-022
  8.4808122e+002  1.0899800e-022
  8.4836645e+002  1.1175300e-022
  8.4865157e+002  1.1465900e-022
  8.4893679e+002  1.1772700e-022
  8.4922181e+002  1.2105100e-022
  8.4950684e+002  1.2458100e-022
  8.4979186e+002  1.2843500e-022
  8.5007678e+002  1.3194200e-022
  8.5036171e+002  1.3575800e-022
  8.5064653e+002  1.3982100e-022
  8.5093135e+002  1.4409200e-022
  8.5121607e+002  1.4785900e-022
  8.5150080e+002  1.5176900e-022
  8.5178542e+002  1.5553600e-022
  8.5207004e+002  1.5900900e-022
  8.5235467e+002  1.6176900e-022
  8.5263919e+002  1.6402800e-022
  8.5292361e+002  1.6571300e-022
  8.5320804e+002  1.6641900e-022
  8.5349246e+002  1.6644000e-022
  8.5377678e+002  1.6579900e-022
  8.5406110e+002  1.6453900e-022
  8.5434533e+002  1.6297000e-022
  8.5462955e+002  1.6129900e-022
  8.5491367e+002  1.5950400e-022
  8.5519780e+002  1.5775100e-022
  8.5548182e+002  1.5543200e-022
  8.5576584e+002  1.5346700e-022
  8.5604987e+002  1.5133100e-022
  8.5633379e+002  1.4913700e-022
  8.5661761e+002  1.4687100e-022
  8.5690154e+002  1.4460900e-022
  8.5718526e+002  1.4236800e-022
  8.5746908e+002  1.4013900e-022
  8.5775281e+002  1.3822000e-022
  8.5803643e+002  1.3620900e-022
  8.5832005e+002  1.3374800e-022
  8.5860358e+002  1.3138900e-022
  8.5888720e+002  1.2914900e-022
  8.5917062e+002  1.2658900e-022
  8.5945405e+002  1.2402000e-022
  8.5973747e+002  1.2149600e-022
  8.6002089e+002  1.1880200e-022
  8.6030422e+002  1.1600200e-022
  8.6058744e+002  1.1331500e-022
  8.6087066e+002  1.1012200e-022
  8.6115389e+002  1.0696700e-022
  8.6143701e+002  1.0366600e-022
  8.6172013e+002  1.0028700e-022
  8.6200316e+002  9.7014300e-023
  8.6228618e+002  9.3602100e-023
  8.6256920e+002  9.0327000e-023
  8.6285213e+002  8.7121600e-023
  8.6313505e+002  8.4441500e-023
  8.6341787e+002  8.1902200e-023
  8.6370070e+002  7.9325900e-023
  8.6398342e+002  7.6940600e-023
  8.6426624e+002  7.5075400e-023
  8.6454887e+002  7.2877300e-023
  8.6483149e+002  7.0804900e-023
  8.6511411e+002  6.8885100e-023
  8.6539674e+002  6.7070200e-023
  8.6567926e+002  6.5308600e-023
  8.6596168e+002  6.3453000e-023
  8.6624421e+002  6.1807800e-023
  8.6652663e+002  6.0264700e-023
  8.6680896e+002  5.8648400e-023
  8.6709128e+002  5.7125900e-023
  8.6737360e+002  5.5769100e-023
  8.6765583e+002  5.4345500e-023
  8.6793805e+002  5.3075500e-023
  8.6822017e+002  5.2002700e-023
  8.6850230e+002  5.0854000e-023
  8.6878442e+002  4.9589100e-023
  8.6906644e+002  4.8488300e-023
  8.6934847e+002  4.7534000e-023
  8.6963049e+002  4.6441300e-023
  8.6991242e+002  4.5672600e-023
  8.7019434e+002  4.4962700e-023
  8.7047616e+002  4.4126300e-023
  8.7075799e+002  4.3301500e-023
  8.7103981e+002  4.2430700e-023
  8.7132153e+002  4.1921900e-023
  8.7160326e+002  4.1083300e-023
  8.7188488e+002  4.0703500e-023
  8.7216651e+002  4.0250700e-023
  8.7244813e+002  3.9717200e-023
  8.7272965e+002  3.9210500e-023
  8.7301118e+002  3.8795400e-023
  8.7329270e+002  3.8446400e-023
  8.7357412e+002  3.8254300e-023
  8.7385555e+002  3.7838400e-023
  8.7413697e+002  3.7482400e-023
  8.7441830e+002  3.7231000e-023
  8.7469962e+002  3.7171900e-023
  8.7498084e+002  3.7099200e-023
  8.7526207e+002  3.7015100e-023
  8.7554329e+002  3.6966600e-023
  8.7582442e+002  3.6900000e-023
  8.7610554e+002  3.6919600e-023
  8.7638666e+002  3.6826100e-023
  8.7666769e+002  3.6790000e-023
  8.7694871e+002  3.7108000e-023
  8.7722973e+002  3.7083000e-023
  8.7751066e+002  3.7289800e-023
  8.7779158e+002  3.7386500e-023
  8.7807241e+002  3.7739200e-023
  8.7835333e+002  3.7917300e-023
  8.7863405e+002  3.7879100e-023
  8.7891488e+002  3.8072000e-023
  8.7919560e+002  3.8042400e-023
  8.7947633e+002  3.8052400e-023
  8.7975695e+002  3.8231100e-023
  8.8003767e+002  3.9351000e-023
  8.8031820e+002  4.0708000e-023
  8.8059882e+002  4.1095700e-023
  8.8087935e+002  4.1354000e-023
  8.8115987e+002  4.1482100e-023
  8.8144029e+002  4.1550200e-023
  8.8172072e+002  4.1839600e-023
  8.8200114e+002  4.2371900e-023
  8.8228157e+002  4.2867800e-023
  8.8256189e+002  4.3338300e-023
  8.8284222e+002  4.3796800e-023
  8.8312244e+002  4.4437600e-023
  8.8340266e+002  4.5234900e-023
  8.8368289e+002  4.5867600e-023
  8.8396311e+002  4.6720100e-023
  8.8424324e+002  4.7329300e-023
  8.8452336e+002  4.8200100e-023
  8.8480348e+002  4.9124900e-023
  8.8508351e+002  5.0113000e-023
  8.8536353e+002  5.1058600e-023
  8.8564356e+002  5.1724500e-023
  8.8592348e+002  5.2550100e-023
  8.8620341e+002  5.3238300e-023
  8.8648333e+002  5.3723000e-023
  8.8676315e+002  5.3954800e-023
  8.8704298e+002  5.4247500e-023
  8.8732280e+002  5.4315300e-023
  8.8760263e+002  5.4778900e-023
  8.8788235e+002  5.5252500e-023
  8.8816208e+002  5.5587400e-023
  8.8844170e+002  5.5783600e-023
  8.8872142e+002  5.5940100e-023
  8.8900105e+002  5.6126000e-023
  8.8928057e+002  5.6142600e-023
  8.8956020e+002  5.6022000e-023
  8.8983972e+002  5.6043400e-023
  8.9011925e+002  5.5630800e-023
  8.9039867e+002  5.5143400e-023
  8.9067819e+002  5.4043400e-023
  8.9095762e+002  5.2655300e-023
  8.9123694e+002  5.1373900e-023
  8.9151637e+002  5.0640800e-023
  8.9179569e+002  5.0387600e-023
  8.9207502e+002  5.0644200e-023
  8.9235424e+002  5.0956800e-023
  8.9263356e+002  5.1572300e-023
  8.9291279e+002  5.2220700e-023
  8.9319191e+002  5.2983000e-023
  8.9347114e+002  5.3812500e-023
  8.9375026e+002  5.5497500e-023
  8.9402939e+002  5.7528900e-023
  8.9430851e+002  5.9909900e-023
  8.9458754e+002  6.1564500e-023
  8.9486656e+002  6.3066500e-023
  8.9514558e+002  6.4151100e-023
  8.9542451e+002  6.5285400e-023
  8.9570353e+002  6.6524300e-023
  8.9598246e+002  6.7901200e-023
  8.9626138e+002  6.9199200e-023
  8.9654021e+002  7.0617800e-023
  8.9681903e+002  7.1822000e-023
  8.9709786e+002  7.2671700e-023
  8.9737668e+002  7.3049100e-023
  8.9765550e+002  7.3022900e-023
  8.9793423e+002  7.2806800e-023
  8.9821295e+002  7.2458900e-023
  8.9849168e+002  7.1742400e-023
  8.9877030e+002  7.0881200e-023
  8.9904893e+002  7.0149300e-023
  8.9932755e+002  6.9515100e-023
  8.9960618e+002  6.8461300e-023
  8.9988480e+002  6.7840700e-023
  9.0016333e+002  6.6950200e-023
  9.0044185e+002  6.6020900e-023
  9.0072037e+002  6.4509200e-023
  9.0099880e+002  6.3352300e-023
  9.0127722e+002  6.2011500e-023
  9.0155565e+002  6.0810600e-023
  9.0183407e+002  5.9198200e-023
  9.0211250e+002  5.7672700e-023
  9.0239082e+002  5.6044900e-023
  9.0266915e+002  5.4674600e-023
  9.0294747e+002  5.3129200e-023
  9.0322580e+002  5.1944800e-023
  9.0350402e+002  5.1175900e-023
  9.0378235e+002  5.0583900e-023
  9.0406057e+002  4.8904900e-023
  9.0433869e+002  4.6667700e-023
  9.0461692e+002  4.4937400e-023
  9.0489504e+002  4.3657500e-023
  9.0517317e+002  4.2620000e-023
  9.0545129e+002  4.1502900e-023
  9.0572942e+002  4.0477400e-023
  9.0600744e+002  3.9409100e-023
  9.0628547e+002  3.8535600e-023
  9.0656349e+002  3.7522500e-023
  9.0684152e+002  3.6411400e-023
  9.0711954e+002  3.5523300e-023
  9.0739747e+002  3.4286600e-023
  9.0767539e+002  3.2895100e-023
  9.0795332e+002  3.1487200e-023
  9.0823124e+002  3.0641000e-023
  9.0850916e+002  2.9625600e-023
  9.0878699e+002  2.8765100e-023
  9.0906481e+002  2.7991100e-023
  9.0934264e+002  2.7223700e-023
  9.0962046e+002  2.6661200e-023
  9.0989829e+002  2.5995900e-023
  9.1017601e+002  2.5258900e-023
  9.1045374e+002  2.4672300e-023
  9.1073146e+002  2.3830700e-023
  9.1100919e+002  2.3036400e-023
  9.1128691e+002  2.2379100e-023
  9.1156454e+002  2.1910000e-023
  9.1184216e+002  2.1532600e-023
  9.1211979e+002  2.0905000e-023
  9.1239741e+002  2.0297900e-023
  9.1267504e+002  1.9919000e-023
  9.1295256e+002  1.9646400e-023
  9.1323009e+002  1.9357000e-023
  9.1350771e+002  1.9122700e-023
  9.1378524e+002  1.8919600e-023
  9.1406266e+002  1.8587600e-023
  9.1434019e+002  1.8399900e-023
  9.1461761e+002  1.8036300e-023
  9.1489514e+002  1.7420800e-023
  9.1517256e+002  1.7007400e-023
  9.1544998e+002  1.6658000e-023
  9.1572731e+002  1.6278700e-023
  9.1600473e+002  1.6062600e-023
  9.1628206e+002  1.5748400e-023
  9.1655948e+002  7.7744900e-024
  9.1683681e+002  7.2901100e-024
  9.1711413e+002  1.4739000e-023
  9.1739136e+002  1.5045600e-023
  9.1766868e+002  1.4935000e-023
  9.1794591e+002  1.4760700e-023
  9.1822323e+002  1.4795200e-023
  9.1850046e+002  1.4781900e-023
  9.1877768e+002  1.5021800e-023
  9.1905481e+002  1.5056400e-023
  9.1933203e+002  1.4986400e-023
  9.1960926e+002  1.4869500e-023
  9.1988638e+002  1.4782800e-023
  9.2016351e+002  1.4816800e-023
  9.2044063e+002  1.4763600e-023
  9.2071776e+002  1.4671000e-023
  9.2099488e+002  1.4560100e-023
  9.2127201e+002  1.4499900e-023
  9.2154903e+002  1.4576600e-023
  9.2182606e+002  1.4510000e-023
  9.2210318e+002  1.4559300e-023
  9.2238021e+002  1.4333800e-023
  9.2265723e+002  1.4270300e-023
  9.2293416e+002  1.4286700e-023
  9.2321118e+002  1.4417400e-023
  9.2348821e+002  1.4376200e-023
  9.2376513e+002  1.4230900e-023
  9.2404206e+002  1.4183600e-023
  9.2431908e+002  1.4430300e-023
  9.2459601e+002  1.4686600e-023
  9.2487283e+002  1.4677000e-023
  9.2514976e+002  1.4584600e-023
  9.2542668e+002  1.4829100e-023
  9.2570351e+002  1.5091300e-023
  9.2598043e+002  1.5090900e-023
  9.2625726e+002  1.5169600e-023
  9.2653408e+002  1.5474400e-023
  9.2681091e+002  1.5571000e-023
  9.2708773e+002  1.5648700e-023
  9.2736456e+002  1.5678600e-023
  9.2764138e+002  1.5952700e-023
  9.2791821e+002  1.6064100e-023
  9.2819493e+002  1.6069100e-023
  9.2847166e+002  1.6385800e-023
  9.2874848e+002  1.6447100e-023
  9.2902521e+002  1.6414000e-023
  9.2930193e+002  1.6553400e-023
  9.2957866e+002  1.6587700e-023
  9.2985538e+002  1.6487700e-023
  9.3013211e+002  1.6478800e-023
  9.3040873e+002  1.6305500e-023
  9.3068546e+002  1.6380400e-023
  9.3096208e+002  1.6318200e-023
  9.3123881e+002  1.6197900e-023
  9.3151543e+002  1.5942500e-023
  9.3179206e+002  1.5792400e-023
  9.3206878e+002  1.5740500e-023
  9.3234541e+002  1.5509400e-023
  9.3262203e+002  1.5364700e-023
  9.3289856e+002  1.5037300e-023
  9.3317518e+002  1.4715800e-023
  9.3345181e+002  1.4382200e-023
  9.3372833e+002  1.4500600e-023
  9.3400496e+002  1.4555200e-023
  9.3428148e+002  1.4522600e-023
  9.3455811e+002  1.4713700e-023
  9.3483463e+002  1.5147700e-023
  9.3511116e+002  1.5504700e-023
  9.3538778e+002  1.5919800e-023
  9.3566431e+002  1.6507000e-023
  9.3594083e+002  1.6885900e-023
  9.3621736e+002  1.7706500e-023
  9.3649378e+002  1.8518100e-023
  9.3677031e+002  1.9125900e-023
  9.3704683e+002  2.0270000e-023
  9.3732336e+002  2.1287700e-023
  9.3759978e+002  2.2280100e-023
  9.3787631e+002  2.3204500e-023
  9.3815273e+002  2.4406900e-023
  9.3842926e+002  2.5826400e-023
  9.3870568e+002  2.7018100e-023
  9.3898211e+002  2.8246100e-023
  9.3925863e+002  2.9621200e-023
  9.3953506e+002  3.0604900e-023
  9.3981148e+002  3.1693900e-023
  9.4008791e+002  3.3004600e-023
  9.4036433e+002  3.4617800e-023
  9.4064076e+002  3.5994200e-023
  9.4091718e+002  3.7353100e-023
  9.4119361e+002  3.8751100e-023
  9.4147003e+002  4.0155500e-023
  9.4174646e+002  4.1576400e-023
  9.4202288e+002  4.3272900e-023
  9.4229921e+002  4.4340600e-023
  9.4257563e+002  4.5505300e-023
  9.4285206e+002  4.6748400e-023
  9.4312838e+002  4.7435700e-023
  9.4340481e+002  4.8160400e-023
  9.4368123e+002  4.8843700e-023
  9.4395756e+002  4.9509300e-023
  9.4423399e+002  4.9504400e-023
  9.4451031e+002  4.9178600e-023
  9.4478674e+002  4.8697200e-023
  9.4506306e+002  4.8258000e-023
  9.4533939e+002  4.7512900e-023
  9.4561581e+002  4.6304400e-023
  9.4589214e+002  4.5051100e-023
  9.4616846e+002  4.3744300e-023
  9.4644489e+002  4.2264600e-023
  9.4672121e+002  4.0680300e-023
  9.4699754e+002  3.8911200e-023
  9.4727396e+002  3.7360000e-023
  9.4755029e+002  3.5713300e-023
  9.4782661e+002  3.3929400e-023
  9.4810294e+002  3.2194300e-023
  9.4837936e+002  3.0351700e-023
  9.4865569e+002  2.8838000e-023
  9.4893201e+002  2.7344400e-023
  9.4920834e+002  2.5860000e-023
  9.4948466e+002  2.4462900e-023
  9.4976109e+002  2.3488900e-023
  9.5003741e+002  2.2193000e-023
  9.5031374e+002  2.1287000e-023
  9.5059006e+002  2.0566600e-023
  9.5086639e+002  1.9709700e-023
  9.5114271e+002  1.9068800e-023
  9.5141914e+002  1.8486400e-023
  9.5169546e+002  1.8012500e-023
  9.5197179e+002  1.7756600e-023
  9.5224811e+002  1.7145800e-023
  9.5252454e+002  1.5907900e-023
  9.5280086e+002  1.5007700e-023
  9.5307719e+002  1.4459600e-023
  9.5335351e+002  1.4008300e-023
  9.5362994e+002  1.3304900e-023
  9.5390626e+002  1.2462100e-023
  9.5418259e+002  1.2300600e-023
  9.5445901e+002  1.3382300e-023
  9.5473534e+002  1.4270900e-023
  9.5501166e+002  1.3954400e-023
  9.5528809e+002  1.3448600e-023
  9.5556441e+002  1.3442400e-023
  9.5584084e+002  1.3309300e-023
  9.5611716e+002  1.3316900e-023
  9.5639359e+002  1.3377400e-023
  9.5666991e+002  1.3566800e-023
  9.5694634e+002  1.3178200e-023
  9.5722266e+002  1.2642700e-023
  9.5749909e+002  1.2574100e-023
  9.5777551e+002  1.2178800e-023
  9.5805184e+002  1.1544500e-023
  9.5832826e+002  1.1085900e-023
  9.5860469e+002  1.0562900e-023
  9.5888111e+002  1.0154400e-023
  9.5915754e+002  9.8818100e-024
  9.5943396e+002  9.5783800e-024
  9.5971039e+002  9.5628000e-024
  9.5998681e+002  9.1097500e-024
  9.6026324e+002  8.8283900e-024
  9.6053966e+002  8.3122100e-024
  9.6081609e+002  8.0377000e-024
  9.6109251e+002  8.2144600e-024
  9.6136904e+002  8.0120800e-024
  9.6164547e+002  7.7817800e-024
  9.6192189e+002  7.8830300e-024
  9.6219842e+002  7.5822000e-024
  9.6247484e+002  7.5127500e-024
  9.6275137e+002  7.6082100e-024
  9.6302789e+002  7.5782500e-024
  9.6330432e+002  7.4261800e-024
  9.6358084e+002  7.3701700e-024
  9.6385737e+002  7.5587200e-024
  9.6413389e+002  7.6054100e-024
  9.6441042e+002  7.5824100e-024
  9.6468694e+002  7.6717300e-024
  9.6496347e+002  7.5368700e-024
  9.6523999e+002  7.3239300e-024
  9.6551652e+002  7.0639500e-024
  9.6579314e+002  6.8642800e-024
  9.6606967e+002  6.7333300e-024
  9.6634629e+002  6.4009700e-024
  9.6662282e+002  6.2037500e-024
  9.6689944e+002  5.9692600e-024
  9.6717607e+002  5.5266900e-024
  9.6745269e+002  5.1809800e-024
  9.6772932e+002  4.9616900e-024
  9.6800594e+002  4.6706200e-024
  9.6828257e+002  4.4380100e-024
  9.6855919e+002  4.3453500e-024
  9.6883582e+002  4.0593500e-024
  9.6911244e+002  3.9868200e-024
  9.6938917e+002  3.8110900e-024
  9.6966579e+002  3.3478100e-024
  9.6994252e+002  3.1132400e-024
  9.7021924e+002  2.8910600e-024
  9.7049597e+002  2.7905400e-024
  9.7077269e+002  2.7664800e-024
  9.7104942e+002  2.7517100e-024
  9.7132614e+002  2.5315900e-024
  9.7160287e+002  2.5581900e-024
  9.7187969e+002  2.4746000e-024
  9.7215642e+002  2.4030900e-024
  9.7243324e+002  2.4006000e-024
  9.7270996e+002  2.2545000e-024
  9.7298679e+002  2.2592100e-024
  9.7326361e+002  2.1975700e-024
  9.7354044e+002  2.1550800e-024
  9.7381726e+002  2.0907000e-024
  9.7409419e+002  2.0148900e-024
  9.7437101e+002  1.8841700e-024
  9.7464794e+002  1.9828100e-024
  9.7492476e+002  2.2063000e-024
  9.7520169e+002  2.1138400e-024
  9.7547861e+002  1.9976200e-024
  9.7575554e+002  2.2470300e-024
  9.7603246e+002  2.2266700e-024
  9.7630939e+002  2.1554100e-024
  9.7658641e+002  2.0202400e-024
  9.7686334e+002  1.9933100e-024
  9.7714036e+002  1.7507300e-024
  9.7741739e+002  1.5461800e-024
  9.7769441e+002  1.4522400e-024
  9.7797144e+002  1.4687000e-024
  9.7824846e+002  1.5707600e-024
  9.7852549e+002  1.3807200e-024
  9.7880261e+002  1.3392600e-024
  9.7907964e+002  1.4802400e-024
  9.7935676e+002  1.3129800e-024
  9.7963389e+002  1.0747800e-024
  9.7991101e+002  9.7320300e-025
  9.8018814e+002  8.9740100e-025
  9.8046536e+002  1.1671800e-024
  9.8074249e+002  1.2589900e-024
  9.8101971e+002  1.4590000e-024
  9.8129694e+002  1.7223400e-024
  9.8157416e+002  1.6987400e-024
  9.8185139e+002  1.9522700e-024
  9.8212861e+002  2.1658800e-024
  9.8240594e+002  2.2889500e-024
  9.8268316e+002  2.5992700e-024
  9.8296049e+002  2.7387900e-024
  9.8323781e+002  2.5900200e-024
  9.8351513e+002  2.8323900e-024
  9.8379246e+002  3.0433900e-024
  9.8406988e+002  3.4778200e-024
  9.8434721e+002  3.7566200e-024
  9.8462463e+002  3.6375200e-024
  9.8490206e+002  4.0567200e-024
  9.8517948e+002  4.5480900e-024
  9.8545701e+002  5.0350000e-024
  9.8573443e+002  5.6810900e-024
  9.8601196e+002  5.9146400e-024
  9.8628948e+002  6.7128100e-024
  9.8656701e+002  7.3947400e-024
  9.8684453e+002  8.1599000e-024
  9.8712206e+002  9.0068100e-024
  9.8739968e+002  9.6834900e-024
  9.8767731e+002  1.0521900e-023
  9.8795483e+002  1.1069800e-023
  9.8823256e+002  1.1964900e-023
  9.8851018e+002  1.2977400e-023
  9.8878780e+002  1.3615800e-023
  9.8906553e+002  1.4495600e-023
  9.8934325e+002  1.5591900e-023
  9.8962098e+002  1.7110100e-023
  9.8989870e+002  1.8907800e-023
  9.9017653e+002  2.1905700e-023
  9.9045435e+002  2.7115600e-023
  9.9073208e+002  3.5073600e-023
  9.9101000e+002  4.5338900e-023
  9.9128783e+002  5.2812100e-023
  9.9156565e+002  4.8921500e-023
  9.9184358e+002  3.7844700e-023
  9.9212150e+002  3.0167500e-023
  9.9239942e+002  2.8204900e-023
  9.9267735e+002  2.8529700e-023
  9.9295537e+002  2.7864000e-023
  9.9323340e+002  2.8057300e-023
  9.9351142e+002  2.9450700e-023
  9.9378945e+002  2.8731700e-023
  9.9406747e+002  2.7151200e-023
  9.9434560e+002  2.7227100e-023
  9.9462372e+002  2.7808600e-023
  9.9490185e+002  2.5959400e-023
  9.9517997e+002  2.1335600e-023
  9.9545820e+002  1.8581100e-023
  9.9573642e+002  1.9263800e-023
  9.9601464e+002  1.8772200e-023
  9.9629287e+002  1.5530000e-023
  9.9657109e+002  1.2473100e-023
  9.9684942e+002  1.1215000e-023
  9.9712774e+002  1.2320700e-023
  9.9740607e+002  1.4376100e-023
  9.9768439e+002  1.2715100e-023
  9.9796282e+002  9.5059500e-024
  9.9824124e+002  8.5693700e-024
  9.9851966e+002  8.2795700e-024
  9.9879809e+002  8.0602100e-024
  9.9907661e+002  8.8910600e-024
  9.9935514e+002  9.4545300e-024
  9.9963366e+002  7.7463900e-024
  9.9991219e+002  6.0815100e-024
  1.0001908e+003  5.6692100e-024
  1.0004693e+003  5.9834900e-024
  1.0007480e+003  5.9648600e-024
  1.0010267e+003  6.2249700e-024
  1.0013053e+003  6.6236700e-024
  1.0015840e+003  5.9183500e-024
  1.0018628e+003  4.6751400e-024
  1.0021416e+003  3.8168100e-024
  1.0024203e+003  3.4205200e-024
  1.0026991e+003  3.6883100e-024
  1.0029780e+003  4.5173400e-024
  1.0032569e+003  4.8737600e-024
  1.0035357e+003  4.2291700e-024
  1.0038146e+003  3.7865500e-024
  1.0040937e+003  3.2771600e-024
  1.0043726e+003  3.0123200e-024
  1.0046516e+003  2.8372100e-024
  1.0049306e+003  2.5895100e-024
  1.0052096e+003  2.7249000e-024
  1.0054888e+003  3.0014400e-024
  1.0057678e+003  3.3382600e-024
  1.0060470e+003  3.1287300e-024
  1.0063261e+003  2.4489200e-024
  1.0066054e+003  2.5060800e-024
  1.0068846e+003  2.2403700e-024
  1.0071638e+003  2.1464800e-024
  1.0074430e+003  2.2021400e-024
  1.0077224e+003  1.9565100e-024
  1.0080017e+003  1.7323900e-024
  1.0082811e+003  1.9011400e-024
  1.0085604e+003  2.2253900e-024
  1.0088399e+003  2.5082100e-024
  1.0091194e+003  1.9745400e-024
  1.0093988e+003  1.7188300e-024
  1.0096783e+003  1.8571300e-024
  1.0099579e+003  2.0636500e-024
  1.0102375e+003  1.8087900e-024
  1.0105171e+003  1.5687100e-024
  1.0107967e+003  1.4388400e-024
  1.0110764e+003  1.3883300e-024
  1.0113561e+003  1.2896500e-024
  1.0116358e+003  1.2993700e-024
  1.0119155e+003  1.4396000e-024
  1.0121954e+003  1.5429200e-024
  1.0124752e+003  1.3510100e-024
  1.0127550e+003  1.2478700e-024
  1.0130348e+003  1.1527100e-024
  1.0133148e+003  1.1016000e-024
  1.0135947e+003  1.2351400e-024
  1.0138747e+003  1.3037600e-024
  1.0141547e+003  1.1891200e-024
  1.0144347e+003  1.1078600e-024
  1.0147148e+003  9.7458600e-025
  1.0149949e+003  1.2183500e-024
  1.0152750e+003  1.3207400e-024
  1.0155552e+003  1.2469600e-024
  1.0158355e+003  1.2173300e-024
  1.0161157e+003  1.2211300e-024
  1.0163959e+003  1.1970200e-024
  1.0166762e+003  1.2499200e-024
  1.0169566e+003  1.2349400e-024
  1.0172369e+003  1.1599700e-024
  1.0175173e+003  1.0936000e-024
  1.0177977e+003  1.0238900e-024
  1.0180783e+003  1.0676000e-024
  1.0183587e+003  1.2210700e-024
  1.0186393e+003  1.2116800e-024
  1.0189198e+003  1.3965100e-024
  1.0192005e+003  1.5267900e-024
  1.0194811e+003  1.4701300e-024
  1.0197618e+003  1.3063300e-024
  1.0200424e+003  1.2950200e-024
  1.0203232e+003  1.2410600e-024
  1.0206040e+003  1.3213700e-024
  1.0208848e+003  1.2109500e-024
  1.0211656e+003  1.1790400e-024
  1.0214465e+003  1.0724400e-024
  1.0217275e+003  1.3114200e-024
  1.0220084e+003  1.3256400e-024
  1.0222894e+003  1.3831600e-024
  1.0225704e+003  1.3138900e-024
  1.0228516e+003  1.3093200e-024
  1.0231326e+003  1.2176700e-024
  1.0234138e+003  1.3725000e-024
  1.0236949e+003  1.2464400e-024
  1.0239762e+003  1.1670800e-024
  1.0242574e+003  1.0042700e-024
  1.0245387e+003  1.1330700e-024
  1.0248200e+003  1.1513200e-024
  1.0251014e+003  1.2784800e-024
  1.0253828e+003  1.0435200e-024
  1.0256642e+003  1.1192400e-024
  1.0259457e+003  1.1660300e-024
  1.0262272e+003  1.1262800e-024
  1.0265088e+003  9.7016100e-025
  1.0267904e+003  1.1469000e-024
  1.0270720e+003  1.0635500e-024
  1.0273536e+003  1.1593500e-024
  1.0276354e+003  1.1971800e-024
  1.0279171e+003  1.1986100e-024
  1.0281989e+003  1.0675300e-024
  1.0284807e+003  1.2839100e-024
  1.0287626e+003  1.0951100e-024
  1.0290445e+003  1.1797500e-024
  1.0293264e+003  1.0428000e-024
  1.0296084e+003  1.0770100e-024
  1.0298905e+003  1.0351000e-024
  1.0301725e+003  9.4655900e-025
  1.0304546e+003  9.8994700e-025
  1.0307367e+003  1.1180800e-024
  1.0310189e+003  8.9445000e-025
  1.0313012e+003  8.3796100e-025
  1.0315834e+003  9.2148000e-025
  1.0318657e+003  1.1637600e-024
  1.0321480e+003  1.1110100e-024
  1.0324305e+003  1.0576000e-024
  1.0327129e+003  8.4670300e-025
  1.0329954e+003  9.0535900e-025
  1.0332778e+003  9.4476500e-025
  1.0335605e+003  1.1937600e-024
  1.0338431e+003  1.2424400e-024
  1.0341257e+003  1.5387000e-024
  1.0344083e+003  1.2843300e-024
  1.0346910e+003  1.2080800e-024
  1.0349739e+003  9.7558100e-025
  1.0352567e+003  1.2942100e-024
  1.0355395e+003  1.1688300e-024
  1.0358224e+003  1.3543700e-024
  1.0361054e+003  1.2451000e-024
  1.0363883e+003  1.2119400e-024
  1.0366713e+003  1.2502600e-024
  1.0369544e+003  1.5276700e-024
  1.0372376e+003  1.3549200e-024
  1.0375207e+003  1.6443900e-024
  1.0378039e+003  1.5271900e-024
  1.0380871e+003  1.8122800e-024
  1.0383705e+003  1.7695000e-024
  1.0386538e+003  1.9969400e-024
  1.0389371e+003  1.9077300e-024
  1.0392205e+003  2.1092700e-024
  1.0395040e+003  2.1151700e-024
  1.0397876e+003  2.2553500e-024
  1.0400711e+003  1.9310600e-024
  1.0403547e+003  1.9507300e-024
  1.0406383e+003  2.0139800e-024
  1.0409221e+003  2.4936600e-024
  1.0412058e+003  2.2729800e-024
  1.0414895e+003  2.6980200e-024
  1.0417733e+003  2.5970400e-024
  1.0420573e+003  2.9418000e-024
  1.0423412e+003  2.8583200e-024
  1.0426251e+003  3.2575900e-024
  1.0429091e+003  3.4062600e-024
  1.0431932e+003  3.8001100e-024
  1.0434774e+003  3.6909300e-024
  1.0437615e+003  3.8203400e-024
  1.0440457e+003  3.7911000e-024
  1.0443299e+003  4.4547700e-024
  1.0446143e+003  4.6695100e-024
  1.0448986e+003  5.3767000e-024
  1.0451830e+003  6.0841700e-024
  1.0454674e+003  7.5491000e-024
  1.0457519e+003  8.8825600e-024
  1.0460365e+003  1.0190300e-023
  1.0463210e+003  1.0234500e-023
  1.0466056e+003  9.2814100e-024
  1.0468903e+003  7.6532200e-024
  1.0471751e+003  6.9929900e-024
  1.0474599e+003  6.6491100e-024
  1.0477447e+003  6.6420000e-024
  1.0480295e+003  6.4354000e-024
  1.0483145e+003  6.6392300e-024
  1.0485995e+003  6.4501400e-024
  1.0488845e+003  6.4353400e-024
  1.0491695e+003  5.8682500e-024
  1.0494546e+003  6.2322600e-024
  1.0497399e+003  6.0920900e-024
  1.0500251e+003  5.7332100e-024
  1.0503104e+003  4.8264000e-024
  1.0505957e+003  4.4643800e-024
  1.0508811e+003  4.1727200e-024
  1.0511665e+003  4.4752300e-024
  1.0514520e+003  3.6498500e-024
  1.0517375e+003  3.1575500e-024
  1.0520230e+003  2.5981500e-024
  1.0526413e+003  2.4840500e-024
  1.0534313e+003  2.1669600e-024
  1.0542210e+003  2.1952600e-024
  1.0550106e+003  1.9393000e-024
  1.0558001e+003  1.7077300e-024
  1.0565895e+003  1.3471000e-024
  1.0573787e+003  1.3227700e-024
  1.0581678e+003  1.3021400e-024
  1.0589568e+003  1.1626000e-024
  1.0597455e+003  1.3960100e-024
  1.0605341e+003  1.6200800e-024
  1.0613226e+003  1.0980700e-024
  1.0621110e+003  1.2729500e-024
  1.0628993e+003  9.1546900e-025
  1.0636874e+003  1.1503200e-024
  1.0644753e+003  1.2140600e-024
  1.0652631e+003  1.3698700e-024
  1.0660507e+003  1.3585700e-024
  1.0668383e+003  1.1363500e-024
  1.0676257e+003  9.2742100e-025
  1.0684129e+003  1.2628000e-024
  1.0692001e+003  1.1100000e-024
  1.0699871e+003  8.6410500e-025
  1.0707739e+003  9.0872600e-025
  1.0715605e+003  7.7492600e-025
  1.0723471e+003  7.7740000e-025
  1.0731336e+003  7.5066900e-025
  1.0739199e+003  8.0450800e-025
  1.0747061e+003  8.9252400e-025
  1.0754921e+003  8.5561900e-025
  1.0762780e+003  1.5207700e-024
  1.0770637e+003  9.9327500e-025
  1.0778493e+003  7.1163400e-025
  1.0786349e+003  9.0128700e-025
  1.0794202e+003  1.0832600e-024
  1.0802055e+003  9.4050900e-025
  1.0809906e+003  7.3182700e-025
  1.0817756e+003  5.1721500e-025
  1.0825604e+003  4.9598200e-025
  1.0833450e+003  6.6547500e-025
  1.0841296e+003  9.9180100e-025
